FP1,FP2,F3,F4,C3,C4,P3,P4,O1,O2,F7,F8,T3,T4,T5,T6,FZ,CZ,PZ,"ECG
[E1]"
-52.466293,-1.109808,-164.60603,-1.2197363,125.5328,10.838525,0.0,-1.0223882,187.78365,-1.1194584,-129.04929,-0.8587661,114.241844,-0.5534229,1.1420158,-1.140449,-26.56056,-0.012291139,155.5308,-0.09175815
-50.648792,-0.99583244,-196.15811,-1.1572615,99.7196,10.711433,0.0,-0.91634035,167.37346,-1.0754961,-145.86128,-0.783875,96.40409,-0.48626822,-14.064647,-1.0661176,-56.641945,0.045838874,133.51053,-0.3961183
-28.813198,-0.8316835,-207.48428,-1.02792,98.2005,10.655802,0.0,-0.77609134,169.9102,-0.9894784,-139.14604,-0.68576056,97.634964,-0.4050093,-6.6629357,-0.93342227,-65.6467,0.0249089,135.26485,0.015158491
4.0854754,-0.7842256,-200.05873,-0.992113,115.87947,10.589892,0.0,-0.76768035,189.80627,-1.0069826,-114.87573,-0.7142209,113.659035,-0.46043503,16.051596,-0.8983807,-56.587708,-0.07427014,156.98611,0.39267522
35.042503,-0.9945544,-181.96387,-1.1900388,141.81073,10.399266,0.0,-1.0272871,215.99278,-1.2502327,-84.79007,-0.9920644,135.57217,-0.7734778,41.35304,-1.1000041,-39.17991,-0.21073583,187.47794,0.23086414
52.715286,-1.4638435,-163.50168,-1.6299826,164.49301,10.053143,0.0,-1.5496494,237.08368,-1.7170355,-60.811417,-1.5070198,154.08115,-1.3455426,57.231453,-1.5510654,-24.45824,-0.32674915,214.04143,-0.6838373
51.869038,-2.0278857,-152.83165,-2.159027,176.41504,9.64962,0.0,-2.1611829,245.94482,-2.2590714,-50.21301,-2.0896306,163.11465,-2.0292857,57.542557,-2.1055892,-19.702703,-0.37681502,228.02629,-2.262604
34.6251,-2.440871,-153.5697,-2.5377913,176.00827,9.358158,0.0,-2.6046941,241.65979,-2.6544812,-53.777733,-2.4986217,161.45415,-2.5851145,43.70582,-2.529047,-26.229895,-0.35013157,227.39804,-4.1624312
8.317156,-2.5135098,-165.1127,-2.5742953,166.50705,9.307211,0.0,-2.6840158,228.23888,-2.7286806,-67.44717,-2.558828,151.95811,-2.7974088,22.4155,-2.627404,-40.79584,-0.2762597,215.52438,-5.8856745
-18.177977,-2.219815,-184.45279,-2.2394133,153.1954,9.496596,0.0,-2.3787549,211.60146,-2.4542487,-85.515305,-2.2646618,139.36697,-2.5909417,1.5087084,-2.3576136,-58.713364,-0.20962875,198.03838,-6.933268
-37.29427,-1.7180387,-207.44115,-1.7023705,141.24582,9.782971,0.0,-1.866753,197.23222,-1.9820168,-102.7451,-1.7938435,128.32477,-2.0894523,-12.993739,-1.8629313,-75.89118,-0.19746755,180.52762,-6.9731784
-43.974728,-1.282421,-228.82924,-1.2644141,135.02586,9.940888,0.0,-1.4454875,189.51286,-1.5864586,-114.642914,-1.4283242,122.45581,-1.581279,-17.508215,-1.4172032,-88.80722,-0.24895541,168.0393,-5.973723
-36.182808,-1.1716657,-242.50287,-1.2074305,137.7799,9.778599,0.0,-1.3836387,191.571,-1.5324483,-117.492485,-1.4131935,123.93718,-1.3863069,-10.608198,-1.2931598,-94.01918,-0.3266962,164.93451,-4.222922
-15.826368,-1.4780648,-243.62025,-1.616203,150.24876,9.271121,0.0,-1.7593992,204.04927,-1.905902,-109.90861,-1.8060694,132.62338,-1.6665144,6.2317896,-1.599206,-89.314384,-0.36991754,173.28236,-2.2444537
10.434028,-2.032901,-232.1382,-2.2773623,168.64041,8.637077,0.0,-2.3720698,223.11519,-2.5062852,-95.27695,-2.3979144,144.93831,-2.2847958,27.130047,-2.1716356,-76.3342,-0.33639252,190.2809,-0.6139282
32.347023,-2.4641006,-214.72057,-2.7627294,184.33353,8.263637,0.0,-2.8195598,240.11401,-2.9194944,-82.22286,-2.7953815,154.0747,-2.842084,42.040306,-2.6293287,-61.98194,-0.23328039,207.49765,0.24322398
40.156425,-2.431915,-202.29848,-2.7036998,187.1967,8.460165,0.0,-2.752033,244.80594,-2.7907996,-81.05464,-2.6731412,152.67578,-2.93028,40.619724,-2.6169899,-56.144176,-0.11312568,214.10672,0.19585991
29.921917,-1.912915,-203.91655,-2.0939236,171.3848,9.181246,0.0,-2.1575828,231.09058,-2.1332324,-97.627594,-2.0509949,137.04848,-2.4565394,18.251024,-2.0991597,-66.35007,-0.036227673,202.91667,-0.5682387
6.5573416,-1.2929902,-220.94374,-1.3660429,139.73514,9.962029,0.0,-1.4427314,201.38673,-1.4040248,-128.90726,-1.3589512,110.08846,-1.7750568,-20.002312,-1.4581348,-92.96696,-0.027632382,175.1029,-1.6360344
-17.976713,-1.1269813,-245.92407,-1.1173058,103.246315,10.194894,0.0,-1.1798006,166.21371,-1.2146311,-163.77884,-1.1680242,80.51194,-1.4641058,-60.934753,-1.2529589,-128.48146,-0.061761282,140.09065,-2.548689
-30.727064,-1.6990322,-266.97842,-1.6489372,75.52434,9.589942,0.0,-1.6665125,138.86949,-1.8504003,-188.8752,-1.7433296,58.546738,-1.875051,-89.78474,-1.7774383,-161.41354,-0.085695885,110.56148,-2.9754846
-24.62245,-2.7372782,-274.70325,-2.6861324,65.62347,8.452315,0.0,-2.6467474,128.52577,-2.9884763,-195.69089,-2.7781215,50.735725,-2.811265,-97.83972,-2.7726789,-182.22702,-0.061761055,95.887825,-2.8276725
-2.272112,-3.5524178,-267.09106,-3.5341337,73.63579,7.5164075,0.0,-3.449423,135.90463,-3.8787498,-184.68126,-3.5624897,56.96286,-3.6251588,-86.52621,-3.5625708,-187.66348,0.0047539286,97.90871,-2.2605174
25.273878,-3.5252306,-249.7897,-3.5714376,91.32892,7.435803,0.0,-3.4656007,153.71544,-3.8743474,-164.36005,-3.4878805,71.14831,-3.6842294,-65.97276,-3.5364957,-181.41087,0.07181779,110.95469,-1.5643557
43.933895,-2.5653727,-232.20053,-2.6974187,106.96562,8.320544,0.0,-2.5957534,171.05363,-2.8999994,-146.49014,-2.4983582,84.79313,-2.8446555,-49.36095,-2.6045218,-171.3476,0.09187943,125.40343,-1.0019213
43.205364,-1.190153,-222.25928,-1.399858,111.24895,9.666951,0.0,-1.3271792,178.92749,-1.5054575,-140.37471,-1.1429151,91.16324,-1.5689236,-46.434772,-1.2754238,-165.31195,0.041801967,132.42186,-0.6546063
20.57026,-0.18204871,-223.0912,-0.42074957,101.11293,10.7030115,0.0,-0.40199253,173.87102,-0.48973897,-149.30391,-0.20642532,87.89298,-0.6143482,-59.57985,-0.31624767,-167.80826,-0.066920646,127.37594,-0.34901777
-18.295769,-0.09552652,-233.13934,-0.28854752,79.70457,10.870243,0.0,-0.33756632,158.08847,-0.39381263,-170.61555,-0.20758244,76.93524,-0.53884465,-84.15754,-0.26171666,-179.18785,-0.1960971,110.48475,0.2973462
-62.960403,-0.9418525,-248.8138,-1.0239261,53.424232,10.123888,0.0,-1.1233428,136.89424,-1.1979244,-198.45216,-1.1007582,62.47138,-1.3616579,-112.1601,-1.1040576,-197.0201,-0.2969445,85.17957,1.7218363
-102.68394,-2.2118416,-266.8906,-2.1595361,28.717121,8.91083,0.0,-2.2544887,115.88625,-2.3714213,-226.62126,-2.3346279,48.654945,-2.5693603,-136.24844,-2.3262758,-217.77829,-0.32745925,56.175114,4.2037253
-129.19687,-3.182163,-284.39438,-3.023205,10.967127,7.8879004,0.0,-3.0472028,99.96136,-3.2028842,-249.41386,-3.1921892,38.8795,-3.4320335,-151.42735,-3.2210453,-237.08452,-0.2698839,29.06429,7.6864934
-137.17308,-3.33032,-296.47885,-3.1293805,5.397554,7.5444713,0.0,-3.048744,94.0373,-3.2190888,-260.70334,-3.2118301,36.55321,-3.4407961,-154.13205,-3.3070858,-248.79369,-0.1424321,11.123958,11.714914
-124.03108,-2.6495938,-295.49014,-2.4855857,17.470198,7.9140654,0.0,-2.3236516,103.20945,-2.4781706,-253.91579,-2.4700172,45.553978,-2.6287138,-141.21866,-2.623459,-245.23807,0.0062677828,10.903011,15.531224
-90.8923,-1.6737411,-274.02274,-1.6198454,50.501183,8.547759,0.0,-1.4354044,130.39914,-1.5544624,-224.96973,-1.5514619,68.57783,-1.5748324,-111.448326,-1.7191132,-220.50938,0.12300859,34.64109,18.306576
-44.41227,-1.1443439,-231.02246,-1.2497456,101.31756,8.815331,0.0,-1.0879103,172.43375,-1.1732061,-176.98276,-1.1777608,103.834526,-1.0436884,-69.050415,-1.2983996,-175.55878,0.1798693,80.841965,19.427517
2.9926825,-1.4893337,-176.11012,-1.7593215,157.89067,8.380161,0.0,-1.6223599,218.21158,-1.6912929,-122.51665,-1.6946298,142.9898,-1.4551547,-25.690325,-1.7162516,-120.987785,0.18353353,137.42258,18.726362
36.67255,-2.481721,-127.40166,-2.8641956,202.5325,7.499469,0.0,-2.7308445,252.0466,-2.7987192,-79.81975,-2.7845435,173.23245,-2.5563154,2.6913006,-2.6868231,-74.01074,0.15707564,185.2208,16.557484
46.223244,-3.381893,-102.792435,-3.777275,220.12016,6.8647075,0.0,-3.648679,261.38773,-3.7156131,-63.979946,-3.669246,183.3676,-3.5789418,3.6877763,-3.4715462,-50.27753,0.11420752,207.10635,13.69123
31.087624,-3.5016613,-110.14731,-3.803643,206.32855,7.0529156,0.0,-3.7242074,244.10652,-3.779675,-78.452965,-3.695194,170.27676,-3.8049128,-24.057974,-3.446201,-55.591297,0.052951917,197.18167,11.052089
1.2445469,-2.7540934,-143.17867,-2.9036806,170.13095,8.022013,0.0,-2.9286997,210.1539,-2.9679492,-112.905205,-2.8515697,141.16539,-3.1109574,-69.23033,-2.6066856,-83.10427,-0.027532905,163.87746,9.403735
-27.958858,-1.725165,-185.6905,-1.7435535,128.73264,9.096472,0.0,-1.8801286,176.19745,-1.9125935,-149.02039,-1.7845075,109.76126,-2.0487187,-113.676025,-1.583917,-117.708084,-0.11040492,124.93007,9.103202
-43.82412,-1.1971841,-220.84479,-1.17222,98.38833,9.486533,0.0,-1.3507003,156.74469,-1.3889046,-170.37833,-1.2826502,88.86771,-1.3933464,-141.91861,-1.1413227,-144.33846,-0.16729961,97.78836,10.003664
-42.383034,-1.5155244,-239.10426,-1.5485156,86.98609,8.925747,0.0,-1.6572286,157.37006,-1.6965551,-170.1116,-1.6512879,84.06464,-1.5307887,-148.27127,-1.5627815,-154.74701,-0.18326728,91.57264,11.5341015
-29.342682,-2.3149767,-240.51265,-2.4637249,92.283966,7.90625,0.0,-2.4226859,173.61993,-2.4349773,-152.34056,-2.4784057,92.175606,-2.1738863,-137.75346,-2.4266555,-149.27527,-0.1731562,104.718414,12.922576
-16.106672,-2.8078518,-231.57835,-3.063976,105.472595,7.3293767,0.0,-2.8785124,195.08725,-2.8308287,-127.9594,-2.9597821,104.63597,-2.6090648,-121.50326,-2.930719,-134.06157,-0.17041862,128.16571,13.466581
-13.765572,-2.383158,-220.28851,-2.694205,116.73022,7.8556767,0.0,-2.447381,211.24529,-2.3322756,-108.500305,-2.504622,112.88348,-2.2508078,-110.45923,-2.4933085,-116.71961,-0.19804338,150.86008,12.760855
-28.323532,-1.0565168,-212.65215,-1.3687067,119.41405,9.440239,0.0,-1.1630346,215.63298,-1.014697,-101.652435,-1.1620456,112.35691,-1.07638,-110.95409,-1.173359,-103.30033,-0.24917893,164.21513,10.817206
-58.90646,0.52957505,-211.80653,0.24429284,111.530945,11.355797,0.0,0.3476394,207.04248,0.46583283,-109.702034,0.40914923,103.42754,0.35063213,-123.57364,0.36671457,-97.33471,-0.29442772,164.10693,8.033827
-98.83313,1.5105667,-218.60329,1.2592294,95.07143,12.639295,0.0,1.2630099,188.44118,1.2903336,-130.10117,1.3583502,89.83871,1.2422664,-144.44897,1.283302,-100.021545,-0.3058118,150.86678,5.0578
-138.40533,1.311706,-232.16513,1.1007446,74.457954,12.638361,0.0,1.0528446,165.11723,0.95909786,-156.90227,1.1432813,76.35554,1.0632707,-167.4239,1.0487807,-110.373695,-0.27567273,128.36966,2.5732713
-168.19331,-0.051316414,-249.82338,-0.209593,54.979282,11.326419,0.0,-0.24916361,143.05193,-0.45679745,-182.44588,-0.19474034,66.98745,-0.18013819,-186.06262,-0.28430915,-125.040085,-0.2173434,102.87615,1.0935131
-181.8996,-2.0264635,-266.96368,-2.1313362,41.47354,9.24863,0.0,-2.1121397,127.67156,-2.403193,-199.28073,-2.1039627,64.13144,-1.9853126,-195.25565,-2.167921,-138.46863,-0.15328282,81.64531,0.820351
-178.15414,-3.8508255,-277.73953,-3.93456,37.184113,7.195082,0.0,-3.823653,122.68023,-4.164683,-202.25636,-3.84847,68.26581,-3.6589596,-192.54274,-3.8855982,-144.23361,-0.103046656,71.11226,1.6086603
-160.8321,-4.9227195,-277.14874,-5.046734,42.70446,5.830805,0.0,-4.835747,128.83145,-5.200613,-190.33107,-4.8640995,77.79907,-4.6654763,-179.11595,-4.895031,-137.615,-0.07691961,74.71179,3.0399199
-137.82542,-5.010884,-263.87134,-5.2315707,55.18972,5.4815793,0.0,-4.948451,143.01863,-5.312662,-167.3827,-4.9469085,89.0862,-4.8122354,-160.10365,-4.99935,-118.40978,-0.07494827,90.99826,4.58476
-118.59393,-4.23824,-242.21162,-4.568019,68.41025,6.1250157,0.0,-4.2809734,158.48859,-4.6093335,-141.39339,-4.2230687,96.98143,-4.2143674,-143.55472,-4.311611,-92.25284,-0.088969044,113.175186,5.7877355
-111.11891,-2.9335957,-221.37796,-3.3293753,74.34004,7.495057,0.0,-3.1264343,166.81279,-3.3713791,-121.83909,-2.9985435,96.24815,-3.1425116,-137.88072,-3.1164885,-69.09575,-0.10822214,130.98454,6.414798
-119.079124,-1.49277,-211.67223,-1.8795238,66.34837,9.183598,0.0,-1.8248961,161.332,-1.9457871,-115.931625,-1.6283524,83.64598,-1.9027206,-148.38808,-1.7576722,-58.9892,-0.12649764,134.82507,6.5140724
-140.19304,-0.30899477,-219.2715,-0.61780053,42.821877,10.708157,0.0,-0.71061194,140.62521,-0.70467526,-125.23026,-0.4626167,59.868202,-0.8048688,-174.42897,-0.5914416,-67.096054,-0.14488769,120.436226,6.3614736
-166.56734,0.2776047,-242.57953,0.08325461,9.145864,11.605148,0.0,-0.08275255,110.069954,-0.0022589662,-144.39885,0.18383405,30.219034,-0.15176295,-208.8296,0.054137655,-90.64424,-0.16593689,91.64295,6.316995
-187.33426,0.07551842,-272.44144,-0.0058859466,-23.588768,11.588865,0.0,-0.13154233,80.30783,-0.06736457,-163.0548,0.110275626,3.3174133,-0.16127557,-240.26857,-0.024771549,-119.63211,-0.18393053,59.379482,6.652347
-192.8425,-0.841825,-296.22025,-0.8432056,-42.99643,10.711992,0.0,-0.83073694,63.057384,-0.8678625,-170.04266,-0.6546555,-11.91364,-0.8343323,-257.6848,-0.7864093,-141.03766,-0.18210983,37.23207,7.4122458
-178.71312,-2.1066265,-303.49442,-2.0820553,-40.821426,9.393189,0.0,-1.8909501,66.171974,-2.0649705,-158.12357,-1.8016483,-9.740981,-1.8863142,-254.65994,-1.9051338,-144.41997,-0.14217131,35.691765,8.373023
-147.87874,-3.1897147,-290.4321,-3.1994956,-16.583117,8.242394,0.0,-2.8534276,90.25059,-3.1367004,-126.9143,-2.8385513,9.99698,-2.842776,-231.76407,-2.890253,-126.21666,-0.0598925,57.901024,9.113027
-109.58332,-3.6452096,-260.92105,-3.7335942,22.330423,7.765785,0.0,-3.2983136,128.33563,-3.620419,-82.93095,-3.3126905,41.740257,-3.270196,-195.95683,-3.3160398,-90.88427,0.046775766,98.67723,9.175265
-75.82329,-3.315308,-224.41278,-3.4880335,63.885002,8.13491,0.0,-3.0411525,168.73657,-3.3254263,-37.05599,-3.0257788,76.32203,-2.9913874,-157.59947,-3.0201871,-48.696335,0.14454804,146.80717,8.250696
-56.911964,-2.368234,-191.95824,-2.5858192,96.088776,9.15739,0.0,-2.1949615,199.60797,-2.3884149,-0.7444315,-2.108528,104.31334,-2.1429179,-126.61959,-2.1485376,-11.54858,0.20163202,189.20096,6.325389
-58.061863,-1.1729457,-172.39944,-1.3689119,110.94437,10.431115,0.0,-1.0799459,213.21477,-1.167094,17.52544,-0.92638004,119.09321,-1.0607489,-109.47031,-1.0436399,11.18897,0.20346533,215.07945,3.718949
-78.040565,-0.11341289,-169.9997,-0.22850426,106.411835,11.552714,0.0,-0.05911576,208.2359,-0.060264733,14.5978985,0.10908468,118.558655,-0.09619371,-107.73157,-0.06987639,15.268614,0.1586111,218.96368,0.99730176
-109.86761,0.54981536,-183.6851,0.53864235,86.38982,12.257335,0.0,0.60138315,189.59314,0.6445656,-6.5251207,0.7130654,105.26779,0.51961917,-118.22798,0.5222655,2.2654037,0.09418801,202.0543,-1.2136115
-142.9845,0.73492086,-207.4947,0.8075062,59.286995,12.459597,0.0,0.80068016,166.31487,0.84941113,-37.41016,0.81509644,85.40769,0.71893764,-134.15591,0.653324,-21.193197,0.043927684,171.93742,-2.4514663
-166.38124,0.52706486,-232.05405,0.63508785,35.551426,12.23153,0.0,0.6030559,148.3514,0.64410895,-66.543564,0.54496914,66.973656,0.5722542,-146.99811,0.40440026,-45.30304,0.033768855,140.47093,-2.5813262
-172.2211,0.11918334,-247.26393,0.21081015,24.30242,11.752395,0.0,0.18452513,143.17816,0.23445565,-83.14101,0.13644373,57.30659,0.23030189,-149.29008,-0.040517285,-60.04912,0.06965353,119.85411,-1.8351614
-159.03639,-0.28419465,-245.93182,-0.24347407,29.746513,11.235984,0.0,-0.2598396,153.06087,-0.17570244,-81.36609,-0.20673661,60.35089,-0.15043627,-137.78458,-0.48577714,-58.870476,0.13357374,117.83944,-0.70353186
-133.02415,-0.5634444,-226.9566,-0.5797397,48.915115,10.849759,0.0,-0.60866857,173.99513,-0.48593187,-63.03757,-0.41056857,74.63544,-0.4760992,-115.59496,-0.8128976,-41.636078,0.19153276,134.16943,0.27761316
-106.300095,-0.7126515,-196.26622,-0.76300657,72.20733,10.673819,0.0,-0.841593,196.9763,-0.7065835,-37.209183,-0.52352566,93.2221,-0.73191226,-91.753174,-1.0053933,-15.20538,0.2108028,160.26201,0.7534346
-92.371376,-0.76622564,-164.82661,-0.8084053,86.83836,10.733524,0.0,-0.9703013,211.2167,-0.8579647,-16.648546,-0.5988352,106.1005,-0.920579,-77.89744,-1.0808992,9.009714,0.17693663,182.50485,0.6800444
-100.595604,-0.68738824,-144.7458,-0.6790601,81.69112,11.064933,0.0,-0.9362531,207.99821,-0.8568478,-12.893063,-0.5678257,104.19042,-0.9723039,-83.52551,-0.9911712,19.338087,0.100232966,187.56454,0.29594678
-131.86243,-0.34863776,-145.07448,-0.26961413,51.68152,11.715132,0.0,-0.6002391,183.90828,-0.529599,-31.782133,-0.24627547,83.33059,-0.7345125,-111.84739,-0.61072737,8.207487,0.008475354,167.5572,-0.061964117
-177.104,0.33458716,-168.15228,0.46965832,0.5187392,12.63644,0.0,0.12021997,142.92786,0.21322915,-70.43471,0.48785433,46.81174,-0.098228775,-157.52196,0.13168311,-24.515089,-0.06768241,123.78176,-0.18988946
-219.35413,1.2234403,-206.84502,1.372111,-58.66063,13.573268,0.0,1.0729256,97.03809,1.185701,-116.145386,1.4866031,5.584425,0.8264718,-206.71484,1.082121,-69.63404,-0.10692247,68.411476,-0.1706337
-239.43178,1.9289285,-243.98004,2.0449524,-105.66271,14.106869,0.0,1.8489956,64.285805,1.9304996,-148.37546,2.3122132,-24.396376,1.6661177,-239.99158,1.8413829,-109.20831,-0.10252506,23.014452,-0.34623802
-224.32956,2.0252252,-256.415,2.0823088,-119.64085,13.8995695,0.0,1.9989234,63.008526,1.9785516,-145.38055,2.480615,-27.798784,1.9636632,-238.71107,1.9752719,-121.37503,-0.06292464,12.274533,-1.0888156
-175.48679,1.3550994,-224.80676,1.3519773,-88.79375,12.965446,0.0,1.3385748,102.82405,1.1780388,-94.94188,1.7952452,2.7077107,1.4690617,-194.12408,1.3117733,-89.81825,-0.010084136,53.031082,-2.4912932
-112.38992,0.15929857,-145.8681,0.103001915,-19.340235,11.713331,0.0,0.0828487,176.37703,-0.18923731,-4.6515126,0.48817003,60.48117,0.30298933,-115.42091,0.06880058,-14.554075,0.02688305,142.72128,-4.1428347
-67.55631,-1.0986236,-39.88576,-1.2152401,62.20489,10.682671,0.0,-1.3156989,257.69144,-1.6135157,95.29707,-0.9570568,124.34987,-1.1446593,-31.082315,-1.307222,82.52496,0.026130693,254.355,-5.1472206
-72.99274,-2.060806,53.251236,-2.2650046,117.33115,10.176118,0.0,-2.4758778,310.63635,-2.7053797,161.456,-2.1385727,165.62474,-2.4803858,20.120596,-2.4460747,162.9733,-0.00962541,343.6367,-4.4357667
-143.82375,-2.665892,90.20916,-2.9863029,112.39796,10.100061,0.0,-3.2701726,305.07617,-3.3856301,156.27565,-2.9326785,160.65324,-3.4976053,6.2907233,-3.230308,187.79735,-0.04779167,367.35175,-1.2579069
-267.95215,-3.0573196,45.31562,-3.4938595,36.084103,10.134346,0.0,-3.7517066,232.70958,-3.7837656,67.73469,-3.4161348,102.96739,-4.1552086,-80.47791,-3.7177563,136.81035,-0.043860383,304.60458,4.3579793
-408.4612,-3.3430498,-74.88094,-3.8495955,-92.360146,10.049359,0.0,-3.9585366,113.52499,-3.9961228,-81.75239,-3.6517167,8.277275,-4.433639,-216.94635,-3.9446309,20.619303,0.025206191,169.27234,11.414537
-518.67,-3.4699812,-232.34459,-3.964772,-229.66743,9.869252,0.0,-3.83322,-11.576918,-3.9709098,-243.1902,-3.5898266,-91.12793,-4.2707314,-356.87393,-3.8486292,-122.25055,0.13806494,5.906038,18.141996
-562.44806,-3.3274193,-373.99384,-3.7250805,-327.50067,9.760781,0.0,-3.3389587,-98.795555,-3.6240542,-362.37546,-3.1795883,-160.3269,-3.6596797,-451.28894,-3.3906014,-242.3778,0.23914094,-129.68565,22.550041
-529.29126,-2.932973,-455.38953,-3.1776419,-354.21924,9.812789,0.0,-2.6127732,-120.84226,-3.0253315,-403.79968,-2.5323918,-177.10089,-2.778658,-470.49802,-2.7096434,-301.7218,0.27882242,-195.23592,23.110836
-436.7691,-2.4663944,-459.24225,-2.5472956,-308.09744,9.96378,0.0,-1.9405795,-77.774994,-2.415383,-364.69678,-1.9139657,-140.84741,-1.958029,-416.214,-2.092521,-289.31924,0.2526665,-179.30257,19.300732
-320.18692,-2.0859904,-399.64124,-2.0323071,-215.51572,10.152907,0.0,-1.5270292,5.7320657,-1.9957722,-272.65494,-1.5253453,-70.879715,-1.4515365,-317.89328,-1.7351351,-222.72383,0.20604591,-102.72899,11.783891
-215.98643,-1.7165543,-311.2702,-1.5824115,-116.19586,10.506217,0.0,-1.2745337,94.115,-1.6967943,-169.4933,-1.2805854,4.2088294,-1.2049328,-216.39484,-1.5212253,-135.96198,0.19749007,-5.093547,2.168581
-147.63194,-1.0629418,-230.98975,-0.91450953,-44.382942,11.306628,0.0,-0.8225175,157.53894,-1.1894453,-91.15184,-0.8348321,59.886425,-0.86718094,-144.705,-1.07398,-62.039597,0.24883537,75.15733,-7.544302
-119.830765,0.10238835,-182.10336,0.19585297,-15.8392725,12.710033,0.0,0.12981904,182.95827,-0.18982738,-54.0523,0.105881184,84.9223,-0.0898065,-115.74967,-0.0947544,-19.642433,0.32385036,116.21883,-15.595957
-121.611664,1.6140912,-168.32047,1.593208,-25.748405,14.451748,0.0,1.4749535,175.50616,1.1926262,-53.16952,1.4427836,82.960106,1.1144482,-121.8576,1.286041,-9.495633,0.3540548,117.6559,-20.946842
-134.60368,2.8717818,-177.88908,2.7082002,-55.96998,15.853649,0.0,2.6466548,151.79486,2.3962262,-69.95496,2.6308033,67.39909,2.272425,-143.45284,2.4759572,-19.509417,0.292089,94.80333,-23.461424
-141.73575,3.1824653,-193.11713,2.8995483,-85.86894,16.20434,0.0,2.9597704,130.21352,2.7415202,-83.80766,3.0060923,53.525948,2.7334466,-160.4967,2.7842891,-33.663326,0.14783722,68.24084,-23.782001
-133.04546,2.2476737,-199.31209,1.9220303,-100.97935,15.246361,0.0,2.0956445,123.22871,1.9156189,-80.94517,2.2551033,51.98314,2.1307857,-160.7356,1.9153703,-39.469284,-0.02127922,54.40882,-23.00277
-107.50316,0.4068619,-189.45421,0.14017002,-96.61512,13.383063,0.0,0.35093296,134.25444,0.21776353,-57.76631,0.6523091,65.8411,0.6571642,-142.21317,0.19954704,-31.424814,-0.1552439,60.842922,-22.285925
-71.3727,-1.5686373,-164.1941,-1.6963905,-76.65115,11.429181,0.0,-1.54914,158.95326,-1.6332403,-19.260693,-1.1233901,91.39376,-1.0655531,-110.90686,-1.6228441,-10.624385,-0.2303367,86.239746,-22.547304
-34.436348,-2.9702463,-128.94533,-2.9384313,-49.4859,10.098083,0.0,-2.9205685,189.15079,-2.9683683,25.182682,-2.4382658,121.37847,-2.4078481,-76.03047,-2.886558,17.873663,-0.26022667,123.57017,-24.26768
-5.758324,-3.551577,-90.40059,-3.4041722,-23.59244,9.616034,0.0,-3.509264,217.03975,-3.5462556,66.12851,-3.065035,148.7644,-3.1068857,-45.562325,-3.3785121,48.11811,-0.26575732,164.00813,-27.439445
9.3494005,-3.5520349,-54.243813,-3.3697329,-4.5682483,9.722689,0.0,-3.5295641,237.75348,-3.5785856,96.954315,-3.2044492,169.36794,-3.3225508,-23.729002,-3.347765,75.36196,-0.2480565,199.92982,-31.61142
10.144198,-3.3879735,-24.705477,-3.2474601,5.476382,9.989959,0.0,-3.3835618,249.53464,-3.4486525,114.597786,-3.210999,182.31467,-3.3873322,-11.001782,-3.2025301,96.524574,-0.1922408,226.14001,-36.008568
-0.6579605,-3.3038943,-5.2420225,-3.2472663,6.790949,10.163916,0.0,-3.3251157,252.30806,-3.3907976,118.73742,-3.2838953,188.68172,-3.4978514,-5.807214,-3.174484,109.49882,-0.09381506,239.66159,-39.708965
-18.46544,-3.2523527,1.3525095,-3.276325,0.81831986,10.277473,0.0,-3.3231795,246.57613,-3.3712811,110.86648,-3.359277,189.86726,-3.594275,-6.141494,-3.2013938,112.797745,0.023452913,239.44498,-41.861866
-37.526703,-3.0361464,-5.375532,-3.09831,-9.617725,10.51576,0.0,-3.1744008,234.045,-3.2033463,94.49286,-3.2343938,187.27258,-3.4758387,-9.601866,-3.0617979,106.77661,0.11862176,227.21893,-41.915188
-50.971943,-2.53524,-20.965788,-2.5725741,-19.231441,11.007014,0.0,-2.7211697,219.28293,-2.749495,76.055824,-2.7749965,183.37207,-3.0087833,-12.201946,-2.6024184,95.77203,0.1626679,209.0069,-39.785484
-51.814926,-1.8248274,-35.496567,-1.7817751,-20.522585,11.71414,0.0,-1.9961005,209.85814,-2.047095,64.474434,-2.0382528,182.4176,-2.2530572,-8.172122,-1.874924,88.541725,0.15666069,194.9694,-35.91489
-36.059616,-1.1324683,-37.47489,-0.9914156,-7.1237817,12.464579,0.0,-1.2190242,213.00589,-1.30187,67.61332,-1.2541159,188.83444,-1.4446274,7.371642,-1.1163957,94.74735,0.12334635,195.4994,-31.1713
-6.538857,-0.7170245,-20.967033,-0.51472104,20.976484,13.040791,0.0,-0.68928224,230.114,-0.79601926,86.86367,-0.7170273,203.53299,-0.8864538,33.882973,-0.62873197,118.522385,0.083515316,214.65334,-26.61154
26.028006,-0.7617578,9.047886,-0.5754472,54.50724,13.259521,0.0,-0.64992815,253.40492,-0.7712016,114.028046,-0.66003245,221.08871,-0.82355446,62.854263,-0.640521,153.75082,0.04194493,245.54736,-23.181229
47.27525,-1.3012289,38.06967,-1.2068594,77.96809,13.039058,0.0,-1.1683074,268.67316,-1.3110534,134.27806,-1.1462948,231.09645,-1.3349798,80.753944,-1.1957935,185.68509,-0.005705374,272.3766,-21.444832
47.200844,-2.16586,50.393703,-2.193996,78.001526,12.474545,0.0,-2.0591695,263.46365,-2.245253,134.56136,-1.9967554,224.00206,-2.2557065,76.72562,-2.0893028,199.05896,-0.057073522,279.1671,-21.460438
26.696924,-2.9718807,38.823772,-3.093035,51.722313,11.879786,0.0,-2.8952885,235.27481,-3.1384404,112.00223,-2.7994525,197.71246,-3.1723592,49.927715,-2.8884547,187.43234,-0.09807627,259.7421,-22.827213
-2.3727582,-3.233649,8.847207,-3.3834198,8.995468,11.699764,0.0,-3.1591465,193.72075,-3.4420066,76.16397,-3.056379,160.01599,-3.557292,10.978517,-3.09115,157.09007,-0.11554903,221.82767,-24.898043
-24.042414,-2.6211202,-25.39187,-2.7451606,-33.07136,12.2612095,0.0,-2.520161,154.95859,-2.7982504,43.45728,-2.453909,124.71875,-3.0409148,-23.78559,-2.4001477,122.84603,-0.113172516,182.40196,-27.05835
-27.517271,-1.231117,-49.85618,-1.3160095,-59.559647,13.4966135,0.0,-1.0923795,132.3897,-1.3283834,27.728863,-1.1115267,104.04443,-1.684661,-41.27775,-0.96568567,99.08069,-0.1116191,157.77097,-28.960701
-12.824275,0.35105854,-57.85684,0.28090605,-64.91695,14.874205,0.0,0.5287011,129.93578,0.3292287,33.325676,0.3898741,102.3556,-0.045909658,-38.004623,0.60096383,92.26479,-0.12988144,155.13083,-30.626972
10.207759,1.324511,-51.756874,1.2356958,-54.065563,15.660404,0.0,1.544997,141.59877,1.3335958,54.323586,1.2884302,114.83366,1.0764937,-20.470705,1.5229467,99.21638,-0.1642694,170.38469,-32.374187
28.060423,1.1474743,-39.59427,1.0259005,-38.051205,15.376633,0.0,1.4132179,156.31259,1.141424,79.02798,1.0869719,131.06956,1.0957422,-0.5433203,1.3082615,110.85173,-0.18578902,192.18796,-34.607056
30.447502,-0.11056717,-29.93997,-0.25382602,-27.754963,14.124571,0.0,0.18048215,164.14651,-0.14898333,96.065735,-0.13424662,140.66718,-0.0066085113,10.763582,0.05357235,117.991425,-0.15939955,208.61269,-37.555504
14.3560295,-1.8016024,-28.106024,-1.9475595,-29.155611,12.532201,0.0,-1.539724,160.3246,-1.8610611,98.75114,-1.7623631,137.65697,-1.6699495,7.8408837,-1.6150702,115.64181,-0.07046037,212.45747,-41.074768
-15.929041,-3.0933292,-34.938877,-3.2370703,-41.778767,11.363962,0.0,-2.9311328,145.8963,-3.157792,86.45998,-3.019175,122.09312,-3.0903738,-8.1290865,-2.9160023,104.10653,0.062170785,203.13943,-44.592712
-51.63596,-3.438026,-47.748238,-3.5938926,-60.07438,11.087426,0.0,-3.4194016,125.98762,-3.5065298,63.52455,-3.3867855,99.00654,-3.6601944,-30.732578,-3.332498,87.41877,0.19318964,185.35844,-47.23288
-83.12431,-2.8067064,-62.168808,-2.990824,-76.388176,11.6844015,0.0,-2.913729,107.2638,-2.8879576,36.895687,-2.818751,75.86626,-3.2298338,-51.5579,-2.815158,70.76685,0.27092007,166.11226,-48.08591
-102.76305,-1.5933113,-73.76877,-1.7995361,-83.96373,12.769279,0.0,-1.7480385,95.81511,-1.6814845,13.770245,-1.6585813,59.82312,-2.0819569,-63.461315,-1.6993282,58.57611,0.25849158,151.91457,-46.532104
-106.53724,-0.33397728,-78.83956,-0.5282311,-78.91067,13.85523,0.0,-0.44013476,95.82791,-0.3945819,-0.12950006,-0.3973669,55.610874,-0.71743006,-62.61996,-0.4694245,53.915367,0.14790532,147.30727,-42.48791
-94.59565,0.5401412,-74.67701,0.39614025,-60.940884,14.5662775,0.0,0.5411162,108.780785,0.5514386,-1.5871902,0.540616,64.430855,0.37103888,-49.07202,0.45037636,58.65048,-0.036124904,154.52132,-36.481537
-71.0697,0.8059298,-60.12973,0.71803236,-33.31643,14.714859,0.0,0.8992259,132.8429,0.8999643,9.438978,0.89643675,83.745735,0.83774614,-26.274635,0.79781663,73.25343,-0.24405062,173.35735,-29.518623
-43.15279,0.44346035,-36.63309,0.3680034,-2.3242652,14.296113,0.0,0.5470996,162.66635,0.56670636,29.479137,0.5963997,107.873,0.5473569,-0.21935761,0.49807933,95.936226,-0.4196013,200.7703,-22.780264
-19.264124,-0.39432952,-8.896403,-0.52822274,23.93268,13.469953,0.0,-0.385292,190.2177,-0.34450132,52.037617,-0.24271518,129.39879,-0.39564267,21.880676,-0.33235708,121.993484,-0.52032465,230.72154,-17.257872
-6.535559,-1.4106929,15.862195,-1.6532753,37.664516,12.536947,0.0,-1.5669085,206.97284,-1.5264659,69.31867,-1.3193846,141.30652,-1.6560966,33.45901,-1.4009612,144.50188,-0.53110796,255.274,-13.465255
-8.545164,-2.227795,30.205126,-2.573045,33.91125,11.865598,0.0,-2.5466487,206.76524,-2.5270913,74.74947,-2.214174,139.22122,-2.7569764,30.555588,-2.3109236,156.43356,-0.46453193,267.0207,-11.340028
-24.31996,-2.5118732,29.153828,-2.9023728,12.283548,11.755204,0.0,-2.9162009,187.91391,-2.9174466,65.19303,-2.5425172,122.85836,-3.2554522,12.9704075,-2.702516,153.08028,-0.35132575,261.78577,-10.354607
-48.831783,-2.1203697,12.126899,-2.4865735,-22.774296,12.291691,0.0,-2.4932954,153.81522,-2.4989626,42.14639,-2.134594,96.170876,-2.9355378,-15.721705,-2.4096901,133.79771,-0.22816198,240.46559,-9.781478
-74.30547,-1.1785656,-15.951826,-1.4783715,-62.740982,13.293982,0.0,-1.4143527,112.39655,-1.414654,12.176494,-1.127476,66.502914,-1.9046608,-48.603653,-1.5371367,103.11635,-0.12790246,209.81255,-8.974345
-91.76704,-0.020653427,-44.102814,-0.24980602,-96.01422,14.404427,0.0,-0.06676821,75.149376,-0.077316605,-13.152105,0.10478067,43.32007,-0.53070927,-75.6765,-0.40149447,71.45653,-0.07367915,182.33286,-7.5436883
-93.30524,0.97455233,-56.282284,0.8003901,-109.59109,15.275422,0.0,1.1004909,55.295673,1.0416679,-18.968435,1.1422853,36.37893,0.7368462,-84.90897,0.6260477,54.29453,-0.076209575,174.42847,-5.3409963
-75.878555,1.5425129,-36.046574,1.4094514,-93.019875,15.727646,0.0,1.7635351,63.648266,1.6191347,7.708054,1.7002642,52.55756,1.5426788,-66.12645,1.2690574,67.56325,-0.13402791,201.06052,-2.304761
-45.858223,1.5856005,24.562157,1.4863381,-44.98831,15.774198,0.0,1.7965131,102.04237,1.5553973,69.429756,1.6852313,91.407616,1.7010797,-18.050419,1.3979468,118.88126,-0.23463383,266.93265,1.7278317
-20.897276,1.1175424,115.71026,1.0425024,20.628927,15.51465,0.0,1.2243965,157.61436,0.9104172,150.84973,1.1287066,141.68347,1.1736654,45.27109,0.99023694,198.61427,-0.35392225,358.2975,7.086217
-25.154316,0.18943222,207.272,0.12172222,75.060844,15.006836,0.0,0.14502662,203.46364,-0.19759656,219.23798,0.103097275,182.51646,0.028825803,94.99578,0.081265256,277.9211,-0.45553306,442.3371,14.129892
-77.45627,-1.1151366,258.45322,-1.1921043,85.01074,14.232426,0.0,-1.290517,208.90538,-1.626598,236.80154,-1.283048,191.22719,-1.5539347,98.62528,-1.2262427,318.63757,-0.49647838,478.5626,22.938074
-177.91498,-2.620864,237.31203,-2.7128453,30.081306,13.17773,0.0,-2.8412628,155.93102,-3.1707163,180.59543,-2.8209577,155.23273,-3.2580106,37.94439,-2.7132094,292.24826,-0.44395164,438.94492,32.981155
-301.96997,-4.0255113,139.84782,-4.12823,-82.51147,11.945562,0.0,-4.16688,52.40744,-4.5286317,58.612194,-4.1711974,81.35296,-4.6618595,-76.774475,-4.0396776,197.57915,-0.29703006,325.8403,42.980343
-407.89398,-4.966015,-3.5413191,-5.0768433,-216.36082,10.790427,0.0,-4.9147363,-67.45503,-5.3611054,-89.23407,-4.9510217,-4.144879,-5.3702936,-206.69666,-4.8405924,65.67069,-0.096378244,175.8318,51.106
-455.524,-5.168654,-139.62639,-5.2939715,-320.6332,10.038721,0.0,-4.8758984,-157.58919,-5.428595,-207.88391,-4.9114885,-66.35273,-5.188125,-300.75528,-4.883109,-52.59548,0.09098858,45.277824,55.51221
-426.14334,-4.5875936,-216.23041,-4.73556,-353.8756,9.943369,0.0,-4.1051674,-182.03918,-4.7220054,-252.9199,-4.0851665,-78.09398,-4.2246923,-319.97446,-4.1851525,-109.83805,0.20725974,-15.282832,55.03618
-332.0828,-3.4387734,-205.33138,-3.6062357,-303.5372,10.561205,0.0,-2.9126492,-132.00883,-3.4937842,-210.8733,-2.7952394,-32.885365,-2.8553748,-256.0538,-3.0162623,-83.616844,0.23645021,16.134344,49.765358
-210.89355,-2.1104524,-113.69392,-2.2818475,-190.80159,11.718381,0.0,-1.7252766,-29.02054,-2.1632726,-103.56821,-1.5126401,52.320156,-1.5602828,-134.37923,-1.7816513,14.910634,0.21087907,124.66888,41.209084
-108.14996,-0.99828595,22.368555,-1.1612493,-59.642757,13.082718,0.0,-0.89493,85.989334,-1.1377811,23.798615,-0.6398043,145.20163,-0.7228183,-1.3955895,-0.8496489,147.70709,0.18615673,267.13406,31.929073
-58.529503,-0.3441121,153.04567,-0.50523555,42.451534,14.308514,0.0,-0.55336577,170.39194,-0.6356116,122.628746,-0.3356955,211.88234,-0.47932127,95.468666,-0.40276244,266.46558,0.20244326,390.86328,24.730335
-73.78386,-0.15503441,233.61221,-0.33620653,82.343254,15.173668,0.0,-0.5854529,195.66574,-0.60514617,159.05746,-0.47280475,229.7758,-0.68428296,125.428635,-0.38158906,330.74704,0.258386,453.42294,21.70025
-140.90872,-0.25064197,239.16415,-0.46651417,51.45197,15.621972,0.0,-0.7357957,156.03595,-0.79717356,124.32921,-0.7521189,194.91978,-1.0143858,83.54556,-0.5579611,321.3571,0.3149942,436.36777,23.46367
-228.95267,-0.41871202,172.13925,-0.6567507,-33.266624,15.688418,0.0,-0.79192483,68.82497,-0.95803535,36.00131,-0.912309,122.379654,-1.1700695,-9.666048,-0.706326,245.87675,0.32629305,350.1269,28.942339
-300.89725,-0.572164,60.795296,-0.79548687,-136.59296,15.392547,0.0,-0.7248015,-32.56443,-1.0093699,-69.30788,-0.8948445,40.30424,-1.0574682,-116.795235,-0.76033723,135.17488,0.27493927,229.38457,35.71406
-326.89114,-0.7720152,-51.843807,-0.9421446,-218.48402,14.730944,0.0,-0.67121744,-111.16887,-1.0615191,-149.88474,-0.8339892,-20.621187,-0.81384,-197.68346,-0.8223617,31.329597,0.18705174,119.84053,40.829544
-294.9088,-1.0770172,-125.59745,-1.1748025,-249.70293,13.8068075,0.0,-0.7517302,-140.75975,-1.2306963,-175.50151,-0.865015,-39.04184,-0.6360547,-224.83463,-0.9964981,-29.426899,0.11315217,60.183907,41.786064
-214.78056,-1.3550836,-139.7709,-1.3834985,-223.29562,12.96073,0.0,-0.87490976,-115.99923,-1.4212034,-139.6573,-0.91480553,-11.282203,-0.54623544,-193.8358,-1.1882238,-31.444506,0.087649256,66.68912,37.29803
-113.27215,-1.2715718,-100.06941,-1.2449654,-155.87277,12.700617,0.0,-0.7322057,-53.043026,-1.3070315,-60.86656,-0.69105834,48.171745,-0.3187612,-123.34519,-1.0859172,15.623634,0.098702915,128.2881,27.62152
-22.059525,-0.53204525,-32.068016,-0.46942952,-77.61575,13.386708,0.0,-0.041190024,20.017403,-0.5857079,28.068647,0.072511554,114.67062,0.32682872,-44.314365,-0.39813733,84.66975,0.0954953,214.8232,14.36927
35.431305,0.8007599,34.018303,0.86980015,-16.813377,14.892584,0.0,1.1475025,77.216,0.6927945,96.42918,1.3088051,165.47238,1.4137175,15.390744,0.8331321,146.3691,0.03088752,293.2553,-0.07823671
51.7236,2.217073,77.38291,2.244778,11.9917755,16.559555,0.0,2.3664708,105.02831,2.0338569,127.961815,2.5406096,189.06201,2.567235,42.14971,2.1385858,182.35895,-0.09441101,342.03928,-13.314639
34.669605,3.0305524,92.00494,2.9584634,10.436548,17.552328,0.0,2.9885936,104.11753,2.770355,123.410164,3.1474254,187.21275,3.2086701,38.323776,2.8761451,189.59007,-0.22360654,356.3985,-23.546484
0.8528273,2.8237505,83.30163,2.608519,-9.448472,17.377592,0.0,2.6438208,84.13903,2.5041614,94.75419,2.7828574,170.4467,2.9494107,16.21959,2.6551805,176.15726,-0.28047156,344.44263,-29.947357
-32.011055,1.718065,61.732384,1.3580775,-33.23831,16.173624,0.0,1.4662777,57.184216,1.3662324,57.41494,1.607723,151.33224,1.8665541,-9.720814,1.5935037,154.22527,-0.22244921,319.73352,-32.6734
-50.09603,0.27175292,38.638355,-0.1878404,-49.167645,14.573318,0.0,-0.0070885536,34.095203,-0.09170495,25.374847,0.16842066,139.79352,0.44885048,-27.692518,0.21995893,135.30373,-0.069951236,295.83972,-32.5938
-45.586647,-0.87637895,24.920605,-1.3669475,-49.534958,13.294105,0.0,-1.1709203,23.571295,-1.2478234,9.453771,-0.94800204,141.47755,-0.7134469,-29.89176,-0.8642666,128.7641,0.10740246,284.1233,-30.87657
-17.483627,-1.3347988,29.60131,-1.7997264,-31.053532,12.7770195,0.0,-1.6544105,31.275234,-1.7231162,15.968373,-1.4073615,157.58406,-1.2412521,-13.101797,-1.2957369,140.96971,0.23448695,292.3428,-28.589567
27.974974,-1.0736142,56.249725,-1.4907706,3.82963,13.071993,0.0,-1.4245455,57.31427,-1.4835528,44.190544,-1.2074775,184.5626,-1.0913438,19.759264,-1.0551456,172.86497,0.2737745,321.98096,-26.436491
78.102615,-0.34978917,99.111946,-0.72708184,45.634197,13.925845,0.0,-0.7173996,93.75072,-0.76593435,84.38707,-0.5874505,213.97943,-0.4933646,58.45048,-0.39337534,217.19064,0.24294542,365.48032,-24.671091
117.11784,0.43692452,143.05943,0.08596046,79.31875,14.929244,0.0,0.091172606,125.47095,0.05277777,119.70544,0.10604886,234.15268,0.19079287,87.39821,0.30991527,258.7644,0.20019102,406.83887,-23.16972
131.92992,0.89237994,169.50264,0.5722296,89.7817,15.65387,0.0,0.6201093,135.9194,0.5871291,132.93938,0.53746885,234.30817,0.6091396,91.791954,0.69236165,279.89008,0.20639493,427.55457,-21.605001
118.04353,0.7757833,165.81245,0.5143634,69.26475,15.793926,0.0,0.62292194,115.40705,0.5818393,115.221504,0.4971675,209.7889,0.5477359,65.15301,0.54930526,268.97394,0.28542426,415.77545,-19.637299
82.34411,0.11304934,132.60414,-0.054253504,22.34127,15.296604,0.0,0.101193465,67.16938,0.030016003,71.49202,-0.003961217,165.3419,0.022235401,13.790326,-0.06951422,227.31717,0.4056729,373.34863,-17.074348
40.742203,-0.8081689,84.14555,-0.86380094,-34.933548,14.394001,0.0,-0.69265497,7.1406574,-0.8165402,19.069695,-0.7336179,114.10095,-0.7289366,-45.033817,-0.88428897,169.52934,0.4964834,316.0781,-13.954124
11.352502,-1.6018479,41.44178,-1.5636995,-81.76612,13.471769,0.0,-1.4055289,-42.970924,-1.5943931,-20.260443,-1.3745792,72.2705,-1.3818669,-90.66058,-1.5538633,116.85749,0.49068546,266.5835,-10.555319
6.4052124,-2.0146482,22.02842,-1.9347688,-101.83865,12.841455,0.0,-1.8018779,-65.74285,-2.0517733,-30.40391,-1.7234602,52.066315,-1.7235385,-108.344635,-1.8872159,87.16192,0.3662809,243.72087,-7.338846
26.949287,-2.0583107,32.222057,-2.0036702,-90.1719,12.5808525,0.0,-1.8898277,-55.81927,-2.1837184,-7.944385,-1.8036051,56.563835,-1.7688411,-95.41888,-1.9398415,87.21554,0.15918545,254.44638,-4.834236
63.051003,-1.947969,65.73521,-1.9745367,-54.20367,12.55618,0.0,-1.8634285,-21.324076,-2.178384,37.4833,-1.8057774,79.11338,-1.7121338,-61.2886,-1.9250845,111.325294,-0.058926843,292.22992,-3.5046573
99.22555,-1.9065573,108.573715,-2.0403128,-8.965701,12.58895,0.0,-1.9188854,21.457575,-2.2289035,89.04125,-1.9109823,107.43923,-1.7566756,-21.714796,-2.021829,146.23157,-0.21981987,342.02954,-3.6042025
121.988686,-1.9877466,146.61609,-2.2202702,30.533571,12.625422,0.0,-2.09032,56.665916,-2.3621495,131.01219,-2.1334352,129.94295,-1.9493914,9.116325,-2.2279198,178.61884,-0.28847057,388.1779,-5.0763392
125.435616,-2.0342557,171.29594,-2.3318803,55.387253,12.787006,0.0,-2.2140644,75.683525,-2.403856,154.91862,-2.2883968,140.64737,-2.128916,24.343239,-2.3512068,200.62538,-0.27039322,420.4993,-7.526965
112.30588,-1.7834282,180.81862,-2.1028352,64.51797,13.279163,0.0,-2.030289,78.834015,-2.0922778,160.74442,-2.096747,140.36002,-2.0126655,25.384714,-2.1262634,210.86264,-0.20044638,435.97397,-10.296901
90.91548,-1.0448322,177.72775,-1.347521,62.33473,14.227757,0.0,-1.3501484,72.26388,-1.2591248,153.96492,-1.3587303,134.20302,-1.369488,18.696997,-1.3788152,211.8609,-0.12479711,436.62424,-12.6343775
70.504265,0.15176488,165.8241,-0.1080268,54.937992,15.545504,0.0,-0.19567323,63.170467,0.030061187,141.40729,-0.1033083,127.78658,-0.1857442,11.272283,-0.1545296,206.94441,-0.083161384,426.4637,-13.915029
57.612278,1.5149045,148.87422,1.3134457,47.465656,16.907412,0.0,1.1578019,56.61859,1.4519409,128.64946,1.3649684,124.523094,1.2647921,7.704651,1.2473176,198.90875,-0.09297844,409.8655,-13.837794
54.603203,2.5817714,131.09293,2.4500508,43.29907,17.85672,0.0,2.2614756,54.958416,2.5314136,119.47991,2.554324,125.0686,2.4945138,9.613174,2.3592746,190.50554,-0.13920385,391.46716,-12.5314
59.988945,2.9040427,117.48736,2.8529687,44.13139,17.99437,0.0,2.6668713,58.61847,2.8306046,116.11094,2.9802904,128.17345,2.9972115,16.317675,2.7269092,184.97995,-0.17808521,376.0561,-10.52329
69.788,2.2516587,112.534706,2.2852733,49.82144,17.165476,0.0,2.1245146,66.66812,2.1416204,118.90549,2.3862545,131.71806,2.4807513,25.47225,2.1161826,185.25702,-0.15946443,367.29294,-8.572395
79.39034,0.74976236,117.71247,0.8519947,58.099495,15.560581,0.0,0.7260831,76.779594,0.60734695,125.78853,0.8926521,133.38454,1.0305425,33.477905,0.6552449,192.15297,-0.059510626,365.89185,-7.419907
85.452484,-1.1185423,129.92218,-0.9909232,64.96789,13.683087,0.0,-1.0806245,85.36274,-1.2852197,132.45886,-1.0027848,131.1761,-0.8792801,36.298756,-1.168027,203.22392,0.098472245,368.929,-7.543272
87.10447,-2.675345,142.39612,-2.5817194,66.18667,12.174906,0.0,-2.6408846,88.54731,-2.8662512,133.9978,-2.6027706,124.036,-2.555783,30.925396,-2.6826727,213.4353,0.25333476,371.19867,-8.993711
85.890495,-3.3453066,147.85321,-3.3341026,59.2323,11.543431,0.0,-3.378353,83.78894,-3.569875,127.22239,-3.3198025,112.39606,-3.392136,16.860392,-3.3363996,217.42659,0.34288746,367.91376,-11.380718
84.6742,-2.9603877,142.16885,-3.0421193,44.721672,11.903523,0.0,-3.0931473,71.30029,-3.227219,112.50483,-2.9783373,98.31736,-3.1728334,-3.2223575,-2.9819982,212.16704,0.3437185,357.19995,-14.011745
86.43468,-1.878059,126.58401,-2.0162928,26.658743,12.897057,0.0,-2.085404,54.588936,-2.1794248,94.12126,-1.9211607,85.10753,-2.195781,-23.997086,-1.9664751,198.73293,0.28385398,341.20764,-16.137386
93.67057,-0.78778076,107.39901,-0.9142739,11.450532,13.887445,0.0,-0.98488945,39.796013,-1.0907481,79.00342,-0.813191,76.559845,-1.0989481,-38.93692,-0.9297407,182.4457,0.21859455,325.57767,-17.221188
108.17254,-0.29388237,93.38297,-0.34020278,5.942643,14.338937,0.0,-0.36956325,33.86925,-0.5485859,74.34756,-0.24101166,75.96315,-0.4749092,-42.26572,-0.42036414,171.17781,0.18809214,317.5778,-17.125015
130.354,-0.56105304,92.16771,-0.49213174,14.914108,14.121868,0.0,-0.43812665,41.974728,-0.7267796,84.839355,-0.3818498,84.977715,-0.53480256,-30.962965,-0.5941182,172.27989,0.18922491,323.45486,-16.14698
157.9095,-1.28427,107.27649,-1.1188163,38.816994,13.518861,0.0,-0.97480255,65.053566,-1.3590323,110.445595,-0.9794015,102.63589,-1.0629346,-6.2202086,-1.2085189,189.30894,0.18342951,345.7869,-14.880647
184.71367,-1.9865379,136.84299,-1.7934085,72.70989,12.94669,0.0,-1.6034133,98.61683,-2.018212,145.59784,-1.6180298,124.911255,-1.6710821,26.24533,-1.8852344,219.97935,0.1329837,381.72913,-13.952268
201.40964,-2.3804092,173.97853,-2.249259,107.0177,12.640501,0.0,-2.0901759,133.46104,-2.447722,180.1252,-2.0470512,145.23116,-2.1175969,57.259617,-2.3975332,256.207,0.036463916,422.8398,-13.738328
198.43176,-2.506033,208.18079,-2.5049465,130.11168,12.5495,0.0,-2.4456904,158.23245,-2.6797464,201.785,-2.29643,156.021,-2.4291406,76.45619,-2.754779,286.20734,-0.0652783,456.77563,-14.190614
170.67892,-2.5799327,227.68681,-2.7237616,132.18622,12.481841,0.0,-2.7848256,163.21584,-2.889908,200.02124,-2.5335388,151.10805,-2.7619953,75.44091,-3.064137,298.12344,-0.11662155,470.86636,-14.848978
121.64758,-2.7337353,223.29358,-2.9817595,109.52615,12.327983,0.0,-3.1172793,144.40897,-3.1612828,170.35068,-2.830668,128.5446,-3.1672468,51.44672,-3.3399928,284.55612,-0.08677966,457.15952,-15.042695
64.3847,-2.8751862,193.2973,-3.1562414,67.62848,12.167784,0.0,-3.2698772,106.45122,-3.3682399,117.9533,-3.0533562,92.84217,-3.4782526,10.273676,-3.4387712,246.80804,0.0074887793,417.3837,-14.202164
17.631182,-2.7611663,146.9193,-3.0060947,21.023735,12.204697,0.0,-2.9978979,62.45832,-3.2556121,58.019806,-2.9452467,54.973362,-3.406814,-33.778755,-3.1563654,196.54121,0.1101464,364.8369,-12.129655
-1.9716085,-2.2041912,102.55161,-2.365457,-11.643831,12.602628,0.0,-2.1894522,29.48232,-2.6390142,10.926175,-2.3316553,28.878052,-2.7667944,-62.819878,-2.3998327,152.48883,0.15692535,320.42816,-9.108499
12.0831585,-1.2580364,79.731964,-1.3134875,-16.024487,13.340294,0.0,-1.0130067,20.786814,-1.5871744,-6.7380157,-1.2961398,25.227287,-1.6627892,-63.962063,-1.3123642,132.31621,0.10931649,303.26013,-5.786902
52.62147,-0.25594166,88.73378,-0.2075107,10.379688,14.170055,0.0,0.09923629,38.94536,-0.46328172,9.364307,-0.20874372,45.677258,-0.5088531,-36.838863,-0.26806313,143.55913,-0.02455468,320.53775,-2.893683
102.25295,0.34319645,124.55932,0.4676938,56.36177,14.721901,0.0,0.6503124,74.20471,0.23144114,48.834915,0.43810564,81.41782,0.162524,5.293391,0.28745136,179.33548,-0.19103877,363.26608,-0.9110959
141.96286,0.22715604,169.61655,0.37398773,102.381905,14.716888,0.0,0.36424938,109.4338,0.14901401,91.95483,0.31266597,117.325516,0.009280079,42.23038,0.086485706,221.86212,-0.31428605,410.84277,0.13296027
159.65369,-0.5523788,203.20473,-0.45024243,129.89384,14.162435,0.0,-0.62024254,128.56024,-0.6620894,119.55631,-0.5300444,139.23448,-0.8876701,57.076496,-0.7715189,251.51562,-0.33309782,441.59863,0.6660322
153.96233,-1.5876515,211.46318,-1.5848144,129.08955,13.3737545,0.0,-1.803431,123.39048,-1.7576728,121.2816,-1.6538126,139.94267,-2.0468855,43.61993,-1.8450769,255.72342,-0.23244888,442.66797,1.3561901
132.39697,-2.3657665,192.22057,-2.4792132,101.43616,12.776621,0.0,-2.6167154,95.61118,-2.5731583,98.21924,-2.500114,121.0418,-2.8742697,7.1991067,-2.606611,233.05196,-0.04879712,414.08328,2.787626
106.42637,-2.5798802,153.67062,-2.7812762,57.249424,12.633695,0.0,-2.7510264,54.415016,-2.7737036,60.243217,-2.7174933,90.809296,-3.0155056,-39.6429,-2.7536964,191.81607,0.1549522,366.6206,5.162867
86.83173,-2.2604883,109.52436,-2.4911838,10.901245,12.916411,0.0,-2.2795763,12.270759,-2.4052541,21.026237,-2.3157926,60.349583,-2.513228,-82.87752,-2.3401368,145.5423,0.32482854,316.3079,8.173808
80.784035,-1.6473637,73.72418,-1.8452543,-24.05024,13.415953,0.0,-1.5069907,-19.156883,-1.7489702,-6.7368603,-1.5533178,39.857914,-1.6746633,-111.3735,-1.6434752,107.84306,0.43316185,278.5983,11.089657
90.32172,-0.9513382,56.237797,-1.0736272,-38.79627,13.9674,0.0,-0.7063072,-32.294804,-1.0453296,-14.996649,-0.694394,35.682545,-0.7988654,-119.53322,-0.912793,88.06879,0.4700869,263.64536,13.023377
111.83651,-0.23257172,60.396217,-0.26516834,-31.700914,14.566154,0.0,0.023491185,-25.861504,-0.34929198,-2.6339347,0.13753663,48.44949,-0.008015696,-108.52405,-0.22627018,88.52561,0.42814735,273.31796,13.26512
137.04076,0.5183927,82.32211,0.5625873,-8.38782,15.276443,0.0,0.69013274,-5.1738334,0.3779346,24.320724,0.91139644,72.89099,0.70316637,-85.71306,0.4418282,104.19149,0.30488348,300.8375,11.554825
155.84581,1.2155067,112.83499,1.3026321,20.83564,16.040749,0.0,1.2444725,20.045488,1.0725722,55.046246,1.5415239,99.89354,1.2988437,-61.799248,1.0503645,125.307884,0.12276621,333.58478,8.193154
160.3157,1.6159892,141.11375,1.6983879,45.124454,16.591133,0.0,1.5045571,39.619324,1.4863478,78.109184,1.818971,120.15941,1.6063154,-46.462856,1.4048951,141.66708,-0.059690706,358.10538,3.9544992
147.794,1.4410567,158.36392,1.4688063,56.769398,16.569204,0.0,1.249789,46.670982,1.3163301,85.53257,1.5079905,127.760445,1.3967566,-44.68154,1.2507653,146.30942,-0.16785361,364.96335,-0.15532677
121.73953,0.5847772,160.09705,0.52450234,53.031425,15.774773,0.0,0.40504813,39.53399,0.44234025,75.11029,0.53510183,121.98241,0.5754445,-55.456676,0.4716754,137.09282,-0.15426445,351.4368,-3.2099664
90.29639,-0.7571355,146.98524,-0.9013812,36.32219,14.353647,0.0,-0.8405448,21.645994,-0.9237686,50.683693,-0.8850682,107.08835,-0.68046266,-72.89931,-0.7692329,116.48696,-0.03099325,321.7513,-4.6389484
63.587044,-2.1449187,124.82175,-2.3233786,13.471301,12.774867,0.0,-2.084205,0.18709055,-2.3048093,20.895039,-2.3006518,90.61912,-1.9592241,-88.495125,-2.065621,90.767586,0.13589579,285.62894,-4.3731985
50.518124,-3.1117,103.30785,-3.2464902,-6.0194244,11.595261,0.0,-2.9106815,-16.141075,-3.2091846,-3.3921573,-3.2394683,80.84397,-2.821082,-93.82296,-2.9724483,68.770226,0.26556835,255.52544,-2.8344212
55.491238,-3.4049761,92.74109,-3.43129,-13.432656,11.158375,0.0,-3.1179454,-20.344372,-3.4037614,-13.082646,-3.461289,83.649796,-3.0434968,-83.76344,-3.249283,59.216137,0.30631554,242.35657,-0.77087694
75.876915,-3.1008122,98.901535,-3.00849,-5.4908175,11.42428,0.0,-2.8172743,-10.825308,-3.0275738,-5.308511,-3.0783687,99.556274,-2.7388084,-59.658478,-2.9796326,66.44444,0.25692862,250.44058,0.99524325
101.97832,-2.517325,118.89922,-2.3622496,12.516084,12.044432,0.0,-2.3335798,6.5773606,-2.467132,14.197125,-2.4544935,122.484825,-2.2555065,-30.38516,-2.4811454,86.81831,0.15893897,274.32413,1.8155452
120.79873,-1.9877286,141.57391,-1.8590823,28.302525,12.624972,0.0,-1.9704487,20.564949,-2.0784953,33.311462,-1.9468398,141.89552,-1.925996,-9.240661,-2.0687263,109.20023,0.07011294,300.51855,1.3935739
122.54274,-1.6508158,153.36475,-1.612754,29.166447,12.986648,0.0,-1.8071468,20.346838,-1.9521822,40.022644,-1.6743139,148.00223,-1.8406117,-7.1786456,-1.8427198,120.559074,0.034712456,314.35452,-0.15993308
106.15368,-1.4059136,146.20833,-1.4540062,9.71853,13.233372,0.0,-1.6781923,2.146846,-1.8896732,29.3766,-1.4821818,137.2016,-1.8143269,-26.338373,-1.6590853,113.5261,0.063188285,308.06,-2.3979812
80.03075,-1.055102,122.035614,-1.1192557,-24.628838,13.592723,0.0,-1.3470953,-28.337929,-1.6022266,6.13234,-1.1213866,114.07733,-1.5670465,-58.47555,-1.296293,90.60625,0.1301521,284.66266,-4.7061872
57.15388,-0.50983304,90.958496,-0.5009908,-60.87596,14.173374,0.0,-0.7311823,-59.38077,-0.97163457,-18.583826,-0.49048328,88.532684,-0.9711761,-89.60709,-0.67635036,62.117477,0.19249114,255.24629,-6.5002446
47.818974,0.107400864,65.05552,0.24208964,-85.83742,14.843997,0.0,0.005060046,-80.00131,-0.16775906,-33.900467,0.25674334,70.11728,-0.17155737,-107.62237,0.041779436,39.760105,0.2174314,232.0276,-7.401466
54.646767,0.54455453,52.411797,0.7962197,-92.56378,15.327898,0.0,0.55947965,-85.32498,0.46395347,-34.459396,0.8180878,63.408966,0.5096584,-107.82705,0.5679437,30.60025,0.20158575,222.26472,-7.3260655
72.392914,0.61501384,54.720562,0.9288868,-82.26328,15.427257,0.0,0.7146783,-77.56246,0.65430844,-21.627148,0.97158104,66.9817,0.8021205,-93.63777,0.6970137,34.945953,0.16670424,226.31294,-6.481839
91.52049,0.35202515,68.34534,0.6646038,-62.032696,15.1916,0.0,0.5010458,-63.33035,0.4108644,-1.4498508,0.7461026,75.53852,0.6763885,-73.4082,0.46724236,47.994453,0.1367987,239.4172,-5.2629366
102.59179,0.008846867,86.7217,0.27787095,-41.083057,14.901056,0.0,0.1860711,-50.141872,0.026329808,18.190594,0.41293815,82.939354,0.36386806,-56.27069,0.14876212,62.82194,0.11721986,254.6976,-4.0867124
99.29705,-0.09364308,102.53878,0.11941434,-27.638067,14.8815775,0.0,0.10379983,-44.106274,-0.106905796,29.749807,0.31223652,84.30118,0.20415203,-49.056206,0.075528264,72.75412,0.0935473,265.46323,-3.2229714
79.76528,0.22845846,109.55955,0.39575714,-26.942562,15.283955,0.0,0.43981197,-48.891933,0.24755439,27.709713,0.6328998,76.92555,0.42449927,-54.66971,0.43169966,72.83177,0.049457867,266.69812,-2.6766815
46.737232,0.89273393,104.31197,1.0360678,-40.017056,15.972644,0.0,1.104919,-65.10455,1.0068352,10.260395,1.283068,60.696854,0.98952615,-71.60224,1.1237612,60.870884,-0.014382294,256.2133,-2.1726446
6.9003744,1.581103,87.2758,1.7239703,-63.230602,16.596231,0.0,1.7771553,-89.82876,1.8055644,-19.484001,1.9323446,38.280647,1.61562,-94.51869,1.8207455,38.199146,-0.07734775,235.42795,-1.2563114
-30.730684,1.9234012,62.931496,2.0812812,-89.16548,16.799883,0.0,2.0944016,-116.87594,2.2181747,-53.74876,2.2072403,14.815678,1.9479321,-115.931046,2.1491895,9.671792,-0.11355428,209.3109,0.50983256
-57.231323,1.7251567,38.63922,1.8966372,-108.76772,16.44813,0.0,1.8805964,-138.17902,2.025924,-82.170944,1.922891,-3.2371247,1.7896482,-128.45306,1.9264332,-17.235916,-0.111018494,185.33063,3.328936
-66.28453,1.0862325,22.849625,1.25032,-114.06439,15.710102,0.0,1.2514982,-146.11588,1.3442876,-94.955315,1.196392,-9.952909,1.2244021,-126.8372,1.2728797,-34.113194,-0.08018526,171.667,7.017059
-56.014732,0.31905985,22.92875,0.44209227,-100.641556,14.941856,0.0,0.51701486,-136.11661,0.51587963,-86.04092,0.35594806,-1.9787128,0.53707284,-109.40103,0.51337844,-33.93085,-0.046960253,174.86269,10.984071
-29.745228,-0.27234063,42.525024,-0.22314976,-69.48093,14.450964,0.0,-0.04470423,-108.86886,-0.14216332,-55.52216,-0.28596142,19.85401,-0.0041380166,-78.956375,-0.057844967,-13.833125,-0.03655647,197.03448,14.3681135
4.475245,-0.5762921,79.00012,-0.6202116,-27.75283,14.321727,0.0,-0.356964,-71.29011,-0.5296676,-10.650358,-0.6164766,49.958862,-0.32305747,-43.070553,-0.3583921,22.440393,-0.05995574,233.50882,16.303637
35.80794,-0.6855911,122.61895,-0.821128,12.301537,14.42107,0.0,-0.5290935,-35.266197,-0.7530067,35.500156,-0.73025805,79.09637,-0.53051203,-12.778322,-0.5072936,64.21846,-0.110635765,272.7232,16.213203
54.064964,-0.7671798,159.25989,-0.9716475,37.13004,14.5402,0.0,-0.70594007,-13.704605,-0.96764225,68.23638,-0.79618216,97.36919,-0.7752863,0.9465391,-0.66924185,97.05564,-0.17060359,299.87094,14.022426
53.725582,-0.94067985,176.33234,-1.1770462,37.437782,14.51889,0.0,-0.95381415,-15.111149,-1.2544426,77.1803,-0.937031,98.23731,-1.1179746,-8.0259695,-0.92764044,108.69463,-0.21912631,303.38388,10.206284
36.509377,-1.2625761,168.77864,-1.4936521,12.721818,14.265009,0.0,-1.2800959,-39.548706,-1.6310139,60.916183,-1.2174639,81.55007,-1.5376011,-37.713192,-1.2920473,94.7133,-0.23828931,280.67065,5.6438737
10.641893,-1.7636969,141.2271,-1.9680388,-28.351439,13.7286415,0.0,-1.7091988,-78.685745,-2.1206632,27.330791,-1.682339,53.62579,-2.012432,-78.8206,-1.7708331,60.301018,-0.21587436,239.2528,1.3377103
-13.112328,-2.429379,104.93362,-2.6071837,-72.310265,12.93607,0.0,-2.2725768,-120.08101,-2.7384214,-10.664864,-2.3311493,24.131153,-2.5362694,-119.40419,-2.3695993,17.13315,-0.14946727,192.54134,-1.8942902
-26.235426,-3.1216936,72.14066,-3.2822118,-106.99559,12.071063,0.0,-2.9007323,-152.73608,-3.387782,-40.922543,-3.030695,1.7920072,-3.0393076,-150.0875,-2.9990525,-22.113323,-0.052234553,153.55408,-3.626814
-25.151745,-3.5690327,52.156746,-3.7068958,-125.23636,11.470687,0.0,-3.36502,-170.19331,-3.8163185,-55.39322,-3.5001752,-8.265437,-3.3365467,-166.18167,-3.4302044,-47.683533,0.04556114,131.09906,-3.8582647
-10.9267,-3.5111265,51.091377,-3.593236,-124.47257,11.45577,0.0,-3.3954537,-170.0073,-3.7485838,-49.850803,-3.4639723,-4.3938546,-3.223954,-166.12553,-3.413914,-53.36063,0.10582721,130.01082,-2.8758578
12.30776,-2.90728,72.9561,-2.887448,-104.79918,12.104509,0.0,-2.902352,-152.02142,-3.1131527,-22.712349,-2.8753889,12.94256,-2.6682656,-149.39915,-2.891174,-35.739803,0.100600116,152.64867,-1.0329349
38.028458,-2.0044036,118.29488,-1.8596956,-69.15207,13.17939,0.0,-2.0835557,-118.75997,-2.1428862,23.635834,-1.9934307,41.287186,-1.8941745,-117.46958,-2.0831625,4.569959,0.026987664,197.69069,1.4389342
57.224438,-1.1770678,179.83656,-0.9378446,-26.035746,14.287413,0.0,-1.2936345,-78.09257,-1.2324234,79.35642,-1.2122709,74.596924,-1.2504804,-77.43659,-1.348838,59.48063,-0.091934115,256.04285,4.4899306
60.01497,-0.6769699,239.84377,-0.42364535,9.401288,15.126148,0.0,-0.7904393,-44.221516,-0.67553127,126.36682,-0.7851761,102.52733,-0.96056354,-43.58724,-0.93092173,111.80669,-0.22008356,308.85022,8.156822
40.59705,-0.5147912,274.97977,-0.33924013,20.5284,15.598933,0.0,-0.5930098,-32.830338,-0.5146484,144.81729,-0.6881882,113.68139,-0.9850837,-32.2404,-0.8210848,140.38495,-0.32352403,333.19653,12.385544
3.11844,-0.55461067,268.933,-0.51132816,-0.2991038,15.739526,0.0,-0.5619137,-51.33181,-0.6079275,125.17471,-0.72573906,102.45445,-1.1130528,-51.173386,-0.84800535,131.68535,-0.3772193,314.96823,16.893387
-36.976616,-0.6904158,224.98056,-0.7699991,-43.50744,15.585187,0.0,-0.5880845,-91.18078,-0.8053847,77.39275,-0.7470362,74.64877,-1.1749977,-91.445946,-0.872339,90.57773,-0.36444083,260.47253,21.174112
-59.58782,-0.922572,168.0532,-1.0633212,-84.46819,15.155214,0.0,-0.6932886,-129.77588,-1.054457,28.475677,-0.76314884,46.32789,-1.1745248,-129.689,-0.89569294,41.00902,-0.27775052,196.66739,24.668468
-51.75288,-1.2857809,132.3933,-1.4118924,-96.94491,14.537555,0.0,-0.9623826,-142.82356,-1.3657187,7.7976375,-0.88159555,35.03011,-1.2387311,-141.42122,-1.0063093,13.728122,-0.12671842,157.27888,27.032825
-16.673214,-1.7338908,141.81465,-1.7933598,-69.40764,13.9522505,0.0,-1.3997267,-119.47006,-1.7156911,29.35998,-1.1536177,48.77892,-1.4631714,-116.79044,-1.2458225,28.187721,0.054207932,163.02965,28.360622
26.787296,-2.1055975,195.54532,-2.08555,-12.875477,13.692235,0.0,-1.8549328,-69.71418,-1.9949639,83.03953,-1.4822639,80.59095,-1.7972453,-67.589,-1.5277013,80.69155,0.20970595,209.19736,29.219479
54.12657,-2.1981273,268.61945,-2.1152236,44.93086,13.973758,0.0,-2.0819116,-19.147131,-2.041926,140.32927,-1.6594881,112.26049,-2.0534816,-20.813585,-1.6672469,146.4086,0.28379747,268.4599,30.454914
48.17961,-1.8838971,325.56424,-1.7654074,74.65972,14.809881,0.0,-1.8824724,4.992108,-1.7292134,169.9917,-1.4916447,124.5837,-2.0182657,-3.688039,-1.4901327,193.08563,0.24642907,306.22995,32.827915
7.2932286,-1.1886908,338.1641,-1.0620096,59.877625,15.990083,0.0,-1.2322532,-12.561089,-1.0469016,153.59554,-0.9224084,107.353775,-1.582155,-29.960167,-0.9443091,197.27602,0.11034047,298.27142,36.639576
-54.868515,-0.28612345,297.56702,-0.18038385,3.538594,17.171535,0.0,-0.3045218,-68.94745,-0.1323381,93.01959,-0.07465665,63.76038,-0.8068631,-94.60952,-0.14429806,154.2307,-0.072944246,241.01727,41.51791
-116.20516,0.5930659,216.20943,0.6458143,-75.042465,18.036388,0.0,0.6319018,-146.00362,0.7871133,8.061461,0.8209188,8.055943,0.11710794,-177.72269,0.69161326,78.07981,-0.23624648,151.12428,46.472385
-155.48361,1.2839271,120.83758,1.2601671,-149.32556,18.434582,0.0,1.3735466,-218.94655,1.5140091,-72.86149,1.5633762,-41.144608,0.9917567,-253.69334,1.3750554,-5.6595163,-0.3274224,56.746025,50.200027
-160.15332,1.7483674,40.999485,1.6528261,-196.08011,18.419527,0.0,1.8735992,-266.3646,1.970398,-124.2215,2.073374,-68.42901,1.7092174,-301.07617,1.843072,-70.833595,-0.33094954,-14.393555,51.53068
-130.17099,2.0100193,-2.0372236,1.8835884,-203.40416,18.133905,0.0,2.1747007,-277.6142,2.1653378,-132.62553,2.3504462,-67.02604,2.2293732,-309.6466,2.1168716,-100.261,-0.26885742,-45.17037,49.827003
-76.77769,2.0150943,-1.808363,1.9160382,-173.66287,17.627396,0.0,2.2410705,-255.16722,2.0659397,-100.43785,2.3360841,-40.267586,2.458956,-282.63297,2.1561441,-90.802864,-0.18139644,-33.875145,45.196743
-16.962618,1.5815246,33.49451,1.5498909,-120.614746,16.790024,0.0,1.8797697,-211.5079,1.5311226,-42.688095,1.8523566,1.157143,2.1882694,-233.65382,1.7821661,-52.295902,-0.100891046,7.6814704,38.454372
33.62697,0.55086374,86.80663,0.5852395,-62.504093,15.514132,0.0,0.89139134,-162.68265,0.4394816,20.567797,0.74617684,44.44006,1.2236636,-180.07277,0.81364334,-1.5192604,-0.03791246,61.072163,30.86518
65.750206,-0.9509878,139.85213,-0.8832386,-14.850294,13.966451,0.0,-0.6414111,-122.15272,-1.065251,72.00877,-0.8470045,79.477104,-0.34715044,-136.25275,-0.66020954,45.18056,0.012106227,109.06054,23.772488
77.63708,-2.4035938,178.7786,-2.3324702,13.737025,12.686892,0.0,-2.2077498,-97.67893,-2.467165,101.34217,-2.3871236,101.10539,-2.0123153,-109.810936,-2.140014,76.887215,0.051812094,140.4769,18.244825
72.997086,-3.112961,196.36777,-3.0413852,21.984884,12.336009,0.0,-3.0751393,-91.24319,-3.096358,105.78767,-3.1550186,108.77366,-3.0272276,-101.486435,-2.91992,89.455826,0.07302719,151.17519,14.848239
58.544544,-2.6538842,192.16443,-2.5666862,14.370293,13.234754,0.0,-2.752551,-100.019165,-2.5649076,88.959656,-2.7110667,105.32349,-2.8671827,-106.85891,-2.5415661,84.6517,0.064614594,142.94295,13.582872
42.531006,-1.1939574,172.14734,-1.0903192,-0.6432973,15.0696535,0.0,-1.3568856,-117.043,-1.0776685,59.82585,-1.2320215,96.15519,-1.6041744,-118.13542,-1.1470913,68.958824,0.026945487,122.42011,13.993198
33.52757,0.57197225,147.66177,0.65751535,-12.510624,17.030155,0.0,0.4204106,-132.35806,0.65217984,31.052397,0.561605,88.37087,0.10327534,-126.01577,0.56878483,52.191387,-0.02334076,99.954544,15.386118
38.037376,1.8339103,132.09065,1.8468438,-11.71519,18.288841,0.0,1.7276335,-136.13449,1.8282752,15.162246,1.8410919,88.73142,1.4091426,-122.667915,1.7807766,44.724297,-0.063562654,86.82119,17.084837
57.22441,2.1200354,135.13632,2.0277405,6.0072007,18.467201,0.0,2.0403326,-123.41791,2.0191166,18.942041,2.1399858,100.46838,1.7703964,-105.6092,2.0117137,53.143368,-0.080307476,90.41344,18.628027
85.14187,1.4917583,157.477,1.3146497,36.630898,17.772383,0.0,1.394112,-97.613716,1.3289667,39.36234,1.5396664,120.87615,1.1935661,-80.13512,1.3404943,76.44669,-0.07675726,109.789345,19.858257
110.75532,0.40944278,189.7279,0.21207312,68.81211,16.770613,0.0,0.26311496,-69.56167,0.23669314,64.562325,0.5066379,141.95262,0.124811135,-57.638077,0.2530197,105.83082,-0.06962975,135.16196,20.8874
123.443825,-0.58196723,217.27274,-0.73417604,89.33895,16.007154,0.0,-0.7715073,-51.91581,-0.72835046,80.25293,-0.43861026,154.4356,-0.8759283,-49.74418,-0.7006462,129.06908,-0.08106934,152.74605,21.966696
118.776344,-1.1353122,228.31218,-1.2187703,90.087776,15.726493,0.0,-1.3321946,-52.176376,-1.2537497,77.79001,-0.9875297,152.96614,-1.4416267,-61.6166,-1.2013118,137.07889,-0.12844737,152.3969,23.317167
100.802704,-1.2160904,219.99129,-1.257964,72.05697,15.823882,0.0,-1.3763927,-68.917786,-1.3306997,58.72098,-1.121228,139.0812,-1.5249954,-88.89686,-1.2570189,128.49797,-0.21282938,133.14478,24.99347
79.38457,-1.0289975,198.84827,-1.0804132,43.98024,16.003485,0.0,-1.1219326,-93.48983,-1.161684,33.044643,-1.0174644,120.15774,-1.3239083,-120.39955,-1.0957477,109.50699,-0.3090455,103.10815,26.82348
64.38579,-0.8243935,175.8797,-0.9244321,16.79444,16.022081,0.0,-0.8435954,-115.65636,-0.97205895,12.734856,-0.87771887,105.12214,-1.086448,-144.69644,-0.9539085,89.506325,-0.36902025,74.221375,28.438595
60.421844,-0.7122146,160.00139,-0.87092954,-2.1443963,15.863712,0.0,-0.6778211,-129.24011,-0.8485437,5.002136,-0.7843165,99.70176,-0.9282642,-156.22371,-0.90469825,75.8487,-0.34626317,55.58327,29.365715
65.1683,-0.60957676,154.12996,-0.81474257,-11.597264,15.734145,0.0,-0.56154174,-134.3982,-0.7088475,9.392615,-0.67084146,103.9937,-0.77937365,-157.24368,-0.83664,70.87624,-0.23013814,49.614536,29.145264
71.65617,-0.35827103,155.58517,-0.5883486,-15.028196,15.879943,0.0,-0.33993763,-135.8843,-0.41889635,19.754715,-0.41942516,113.378685,-0.49111354,-155.10405,-0.58867073,72.357185,-0.06276571,52.66128,27.437248
72.46476,0.08564261,159.30482,-0.1414276,-17.320723,16.365932,0.0,0.049101375,-139.32854,0.040416334,28.778755,-0.0077639017,121.652916,-0.015719382,-157.31061,-0.13082506,75.98477,0.081847064,58.459408,24.098394
62.97588,0.55795443,160.89775,0.37140122,-22.387636,16.987833,0.0,0.47199848,-148.3446,0.50304157,31.5955,0.41808823,124.12964,0.49384186,-167.8455,0.36201265,77.677025,0.14617182,61.432526,19.234095
42.218002,0.77647984,157.63876,0.6706658,-32.803333,17.393188,0.0,0.667989,-163.90799,0.7098451,26.467642,0.61383647,119.02029,0.75455576,-186.56091,0.607365,74.38985,0.12824564,57.91861,13.216614
12.009767,0.5509629,147.84467,0.5467302,-50.36226,17.324368,0.0,0.44215506,-185.3034,0.4968891,13.410722,0.4084267,107.035614,0.5514371,-210.85893,0.4148072,63.939835,0.07848379,45.798134,6.6636915
-23.82496,-0.04688741,130.52281,0.031483404,-75.70686,16.810026,0.0,-0.15932576,-210.84358,-0.0586151,-6.8123283,-0.14252082,90.45775,-0.078647204,-237.37341,-0.15446952,45.28912,0.05526175,24.408836,0.35637084
-59.34665,-0.6751056,106.497894,-0.56967837,-106.56305,16.179,0.0,-0.81657857,-237.37598,-0.635316,-31.86029,-0.729498,72.82464,-0.8075549,-262.1395,-0.7739458,19.985165,0.07498562,-4.181125,-4.9042373
-86.56425,-0.88218975,80.108315,-0.8129527,-136.31369,15.893029,0.0,-1.0762693,-259.47723,-0.81241703,-56.266186,-0.9194371,59.04478,-1.1561888,-279.94006,-0.99693716,-6.3685265,0.09887202,-33.691055,-8.46954
-97.418785,-0.34911138,59.148613,-0.35591483,-155.35176,16.294327,0.0,-0.5968562,-270.25778,-0.2921076,-71.8417,-0.38866305,54.663082,-0.7476767,-284.92328,-0.49254823,-24.786818,0.06806519,-54.401936,-10.010735
-87.845406,0.9038628,51.641876,0.81372964,-155.80626,17.394245,0.0,0.6225149,-264.62802,0.9021577,-71.41588,0.8528063,63.44493,0.45081702,-273.60526,0.736602,-26.80122,-0.041298166,-57.40346,-9.595681
-61.52063,2.4580545,60.76608,2.2969127,-137.12761,18.817461,0.0,2.166867,-243.42038,2.3641737,-54.06251,2.3836849,84.25173,2.0367503,-248.69249,2.2803538,-9.908824,-0.18906167,-40.405643,-7.6502566
-29.987476,3.648966,81.46055,3.4353921,-108.41775,19.954407,0.0,3.3644392,-215.15573,3.4535701,-27.774534,3.528645,109.65079,3.3178263,-220.35046,3.4712706,19.185503,-0.29390526,-10.963341,-4.8009763
-7.8998,3.892775,101.7255,3.6539028,-85.042656,20.270391,0.0,3.632778,-193.24799,3.6191967,-6.691502,3.7075434,128.17577,3.6580877,-202.69344,3.7210488,46.55425,-0.2914878,16.033033,-1.6571492
-5.707167,3.0244799,108.485954,2.804428,-80.9887,19.610224,0.0,2.8230755,-189.58873,2.728096,-3.8527486,2.7854388,129.69328,2.845433,-206.7958,2.8644278,57.823902,-0.1819567,25.845697,1.370232
-24.231773,1.4320905,94.56514,1.2842935,-101.54852,18.307451,0.0,1.3357435,-208.27994,1.1819013,-23.909933,1.1899302,110.849815,1.2483402,-234.49617,1.2870611,45.751163,-0.029774468,11.851143,4.150098
-54.471508,-0.12481361,62.453625,-0.16738732,-140.77097,17.013983,0.0,-0.087156504,-243.44739,-0.27952608,-60.460274,-0.3030053,77.16214,-0.3593046,-277.07776,-0.2645965,13.860419,0.08173928,-21.04143,6.7726827
-82.53375,-0.9205485,22.760872,-0.8733954,-184.8843,16.345621,0.0,-0.76954436,-282.40073,-0.9777982,-99.531105,-0.99002105,40.3959,-1.2115202,-319.66147,-1.0832975,-25.90128,0.10374691,-59.40544,9.388482
-96.5368,-0.651502,-11.324027,-0.57440466,-219.17966,16.55394,0.0,-0.45739448,-311.9886,-0.65605897,-126.77093,-0.6105079,12.872719,-0.9552872,-348.45807,-0.87015533,-59.574074,0.043953463,-88.42234,12.028977
-91.63023,0.41967154,-30.0577,0.46227264,-234.23665,17.41005,0.0,0.5788265,-324.30035,0.40786532,-133.93338,0.5439084,2.0785422,0.18425083,-356.5978,0.13465649,-77.49797,-0.051284645,-98.61618,14.502192
-70.97529,1.6255736,-30.447178,1.6087523,-228.55229,18.343723,0.0,1.718335,-318.82346,1.5714846,-121.30235,1.8090396,8.369923,1.546917,-345.72498,1.3040954,-77.185875,-0.13274416,-88.74068,16.420336
-43.062534,2.2477162,-15.764179,2.1968782,-207.25113,18.742012,0.0,2.310657,-300.74545,2.1606972,-95.64264,2.48641,26.373232,2.382295,-323.42804,1.9502927,-62.199776,-0.17255002,-64.301414,17.346186
-17.50413,1.8714931,7.453174,1.8318675,-178.6745,18.254282,0.0,1.9765496,-277.36545,1.7926817,-65.916115,2.1666322,48.49383,2.2121816,-298.8218,1.6562918,-38.958256,-0.16698687,-33.74065,16.999796
-1.6402038,0.58620536,32.481503,0.57962006,-151.17491,16.973248,0.0,0.7772852,-255.16644,0.5572707,-39.778965,0.91380805,68.15028,1.0533715,-279.0463,0.4763364,-14.028952,-0.1259628,-5.015147,15.414491
0.87827045,-1.0407295,53.7917,-1.0337771,-131.41518,15.422038,0.0,-0.7926133,-238.85168,-1.0028007,-22.482164,-0.7430829,81.22507,-0.5790916,-268.12332,-1.0673828,6.833289,-0.06332721,15.88781,12.968446
-10.01562,-2.2078135,66.81806,-2.2282577,-123.857765,14.3359585,0.0,-1.9968634,-231.68712,-2.1163492,-17.44402,-2.0192852,85.92111,-1.8927722,-267.58557,-2.2020657,18.57599,0.005557467,24.89551,10.25423
-31.129654,-2.2626157,67.862625,-2.3364537,-130.16058,14.301619,0.0,-2.1943574,-235.39194,-2.1504922,-26.340847,-2.2358556,82.37841,-2.1919594,-277.0186,-2.2740955,17.377361,0.063387685,19.927988,7.8565674
-55.885056,-1.0673984,55.7984,-1.1861272,-147.70042,15.407346,0.0,-1.1969723,-248.56676,-0.9728127,-47.36612,-1.1965387,73.100136,-1.2523694,-293.20538,-1.1198766,2.8064632,0.09274254,2.3770034,6.1338162
-74.622505,0.8532632,35.185966,0.72039825,-168.11589,17.112133,0.0,0.551561,-264.71246,0.89614683,-72.805145,0.6285793,63.74758,0.5025439,-308.6365,0.7688309,-19.401335,0.08322098,-20.66311,5.121819
-77.11866,2.5243819,17.923586,2.4002602,-178.18646,18.476933,0.0,2.1418421,-272.50015,2.489134,-89.11612,2.2808397,62.53626,2.1678145,-311.99426,2.4369802,-36.721264,0.040082797,-36.04471,4.620118
-57.899223,3.0344408,20.140167,2.9143512,-164.80263,18.688082,0.0,2.6806054,-260.2565,2.9041398,-81.9988,2.818581,76.819664,2.825955,-292.71713,2.9672341,-33.833973,-0.013855015,-28.717634,4.4213986
-22.06768,2.0670285,53.87268,1.9268304,-122.917145,17.568361,0.0,1.8180181,-223.53693,1.836713,-45.293488,1.871247,107.68771,2.0656385,-248.56714,2.0132623,-0.8717848,-0.049820073,9.837424,4.565572
12.845157,0.10025314,117.555176,-0.07483703,-62.00793,15.719339,0.0,-0.031777326,-171.2752,-0.2198258,11.531475,-0.12335183,145.95988,0.22368568,-191.4799,0.01773089,58.225597,-0.053604662,73.22174,5.4685755
22.569637,-1.8787408,191.96956,-2.0697796,-5.642362,14.164084,0.0,-1.9425745,-125.23735,-2.260629,63.571774,-2.1761394,173.48846,-1.8161459,-146.19116,-2.0451813,123.215576,-0.038755614,138.18486,7.823254
-11.584927,-2.9548979,246.304,-3.1111884,18.076628,13.724128,0.0,-3.0273626,-110.821594,-3.3535032,80.85564,-3.327585,171.0151,-3.132296,-139.81456,-3.2321024,164.60619,-0.037510745,173.0078,12.281021
-90.03113,-2.7644808,252.85233,-2.8331175,-8.571267,14.563881,0.0,-2.905508,-143.04512,-3.1241372,44.632538,-3.154674,129.2421,-3.240697,-186.81282,-3.1180975,158.16196,-0.07294125,153.57866,19.04518
-190.15381,-1.5781229,202.58664,-1.5399207,-81.11526,16.193512,0.0,-1.7972537,-215.88419,-1.8462296,-39.812172,-1.891402,56.533207,-2.2499466,-278.2026,-1.91507,99.09739,-0.13601504,78.338875,27.566675
-274.24655,-0.009808691,112.00777,0.105033,-172.22571,17.862139,0.0,-0.2609116,-302.40277,-0.1539693,-142.5609,-0.15986267,-22.409756,-0.6679422,-382.64944,-0.22017291,6.969986,-0.18928339,-27.698513,36.518444
-307.21014,1.3732858,16.24139,1.5010153,-244.02502,19.006115,0.0,1.1674328,-366.9899,1.3530742,-222.55531,1.4259475,-77.40017,0.9332078,-460.3591,1.3608828,-82.801476,-0.19631658,-123.740875,44.100204
-274.37576,2.269505,-48.254295,2.3476639,-266.98257,19.451828,0.0,2.1766229,-383.2349,2.3415425,-248.0919,2.505777,-87.50059,2.1539092,-482.5277,2.4557223,-136.54956,-0.15148157,-173.34785,48.59118
-189.04169,2.6271408,-61.39968,2.623588,-234.48416,19.327026,0.0,2.6700547,-346.9868,2.7425532,-212.43896,2.9844193,-51.18788,2.8166115,-445.2227,2.9503481,-138.84698,-0.08433085,-162.18526,48.929394
-85.463875,2.5184855,-27.518019,2.4382608,-164.79672,18.85317,0.0,2.6631787,-277.08676,2.631472,-135.69266,2.9180171,13.772064,2.9014862,-369.86963,2.890697,-98.36394,-0.03625837,-103.21128,45.08832
-1.959487,2.0500221,29.972519,1.9229056,-90.17218,18.20804,0.0,2.2233436,-204.19308,2.1323426,-52.791573,2.421173,80.048775,2.4817903,-290.87973,2.3917856,-40.656746,-0.030588353,-27.385578,38.09404
35.770744,1.3504958,82.438324,1.2145182,-40.545666,17.511557,0.0,1.4776452,-155.34215,1.3937564,4.0625124,1.6467054,123.7969,1.7030911,-238.5492,1.6072099,6.307826,-0.059809282,33.03124,29.677261
22.53371,0.5826878,109.34512,0.47458768,-31.372732,16.863771,0.0,0.62252903,-143.35104,0.5902578,18.23255,0.7900552,133.72531,0.7731746,-227.06812,0.72568476,24.586731,-0.09642213,58.204006,21.707567
-29.156204,-0.0738264,104.13433,-0.122846015,-60.85473,16.35943,0.0,-0.11665678,-165.46149,-0.097325936,-8.758615,0.06372428,112.53451,-0.07421397,-252.70003,-0.049409125,10.547407,-0.11372068,45.08527,15.620815
-98.05375,-0.46945363,72.10798,-0.44022605,-115.099396,16.066952,0.0,-0.5607375,-209.01324,-0.52384174,-62.9966,-0.36108682,72.20563,-0.638786,-300.12717,-0.54592156,-28.49095,-0.099560566,3.3197749,12.05931
-163.00005,-0.525608,24.756704,-0.42106244,-175.84503,16.00771,0.0,-0.6307898,-258.56094,-0.6130066,-126.30607,-0.4053245,27.471107,-0.8044269,-350.95444,-0.6685619,-80.2586,-0.056667317,-51.76008,10.811643
-208.04277,-0.25061533,-24.792995,-0.101013795,-226.27737,16.155922,0.0,-0.35418734,-300.37912,-0.36790618,-181.95311,-0.096012175,-8.960321,-0.5625274,-389.54584,-0.42296815,-131.69891,0.0036030058,-104.27726,11.04139
-224.23079,0.26181462,-63.94249,0.40771228,-254.01268,16.44571,0.0,0.15810925,-324.15054,0.13044108,-217.17093,0.4509475,-28.563389,-0.013415011,-405.38394,0.08484256,-170.61504,0.0653356,-140.32892,11.684078
-210.06348,0.84451145,-82.17997,0.9409299,-252.7397,16.771738,0.0,0.7365752,-323.9002,0.7288758,-224.45647,1.0602466,-27.660477,0.64839876,-393.90842,0.67083156,-186.99303,0.10893268,-149.91835,11.836968
-171.45868,1.2881675,-73.72561,1.3132286,-223.5916,16.994268,0.0,1.1807709,-299.4218,1.2231823,-203.06537,1.5309808,-7.6921196,1.174315,-357.3644,1.1177143,-175.66621,0.114896014,-129.6713,11.0232
-120.47624,1.405475,-40.50787,1.3674638,-175.50716,16.975107,0.0,1.310836,-257.28824,1.4147942,-159.98355,1.6843187,24.9721,1.3385313,-305.07578,1.243196,-139.29207,0.074574135,-85.14317,9.275501
-72.004036,1.1157163,7.059613,1.0420456,-123.17274,16.647396,0.0,1.0441356,-209.7053,1.197198,-108.651085,1.4283621,60.418186,1.0364815,-251.55829,0.9761833,-88.948074,0.0011721113,-30.271015,7.0471168
-39.084595,0.5047738,53.19955,0.4228892,-82.41433,16.078953,0.0,0.45746195,-170.7374,0.628446,-64.86193,0.8165764,87.998795,0.3556404,-212.06604,0.40400946,-40.74831,-0.071288586,17.057058,5.0237536
-28.789993,-0.19036108,82.8825,-0.26621133,-64.746895,15.4710455,0.0,-0.22105977,-151.34102,-0.06894216,-41.242905,0.05540755,99.78303,-0.4374656,-197.15344,-0.24840446,-9.610316,-0.10542945,41.70484,3.9041889
-40.30008,-0.68522435,88.00843,-0.75445586,-73.395775,15.06865,0.0,-0.7097981,-155.39642,-0.6045333,-42.675636,-0.56943923,93.33277,-1.0107262,-208.68791,-0.7161545,-3.2073023,-0.08417288,37.184063,4.218329
-65.645996,-0.79462624,70.67457,-0.8602055,-102.28791,15.023438,0.0,-0.8180107,-178.319,-0.77215874,-64.554344,-0.8293871,72.70279,-1.1339889,-239.05318,-0.82796013,-19.01066,-0.02286879,8.145384,6.2042646
-92.66245,-0.5340252,42.039776,-0.5895987,-138.29689,15.301768,0.0,-0.5479451,-208.77177,-0.5637912,-94.63457,-0.67538464,47.12774,-0.80469215,-273.9489,-0.5966143,-45.721657,0.0395641,-31.552628,9.770683
-109.359985,-0.105345026,17.269709,-0.12791966,-166.0971,15.709485,0.0,-0.08564171,-233.06567,-0.16448124,-118.00453,-0.26187992,27.566538,-0.24774641,-297.95453,-0.2039786,-68.44185,0.062881224,-64.51717,14.524561
-108.54152,0.23182054,8.767915,0.27860835,-174.11815,16.025553,0.0,0.3168095,-240.82648,0.17332608,-123.40511,0.15412933,22.202103,0.22026362,-300.88382,0.116788544,-75.31176,0.024657993,-77.04556,19.875757
-90.85425,0.31462002,20.835655,0.46615267,-159.2248,16.144712,0.0,0.48394918,-229.50598,0.2842953,-108.06312,0.36863965,32.877785,0.37365302,-282.1007,0.21911648,-62.54099,-0.07321736,-64.72026,25.17081
-64.47593,0.14735281,48.42744,0.41875553,-127.70285,16.118103,0.0,0.38661808,-205.26173,0.16046712,-78.41364,0.3272285,54.46779,0.18205544,-250.32222,0.10367398,-35.33559,-0.20804608,-33.567112,29.840681
-41.17613,-0.15505618,80.49477,0.21740928,-91.81953,16.06449,0.0,0.103071876,-179.50166,-0.10135293,-46.2514,0.10081506,77.72125,-0.22734225,-218.71786,-0.13302849,-4.4318385,-0.34206563,3.740883,33.518154
-30.81383,-0.4862877,105.643234,-0.06411029,-63.93613,16.037518,0.0,-0.27275166,-163.14479,-0.40814734,-22.78921,-0.21453312,93.92416,-0.6976897,-198.17679,-0.40135056,19.407488,-0.42922488,34.151016,36.08313
-37.33829,-0.8175159,116.645485,-0.41237402,-51.603447,15.97289,0.0,-0.68540215,-162.04231,-0.728579,-14.273846,-0.5685852,98.60203,-1.1411203,-192.8306,-0.6749101,29.616932,-0.42735177,49.255955,37.638252
-58.016197,-1.1580585,111.83582,-0.8281139,-55.8575,15.764672,0.0,-1.0934824,-175.69193,-1.0546929,-21.048307,-0.9372252,92.48174,-1.5305597,-199.9588,-0.9551588,25.054193,-0.31710726,47.03201,38.407448
-85.25952,-1.4555887,94.11905,-1.2316728,-72.28758,15.403172,0.0,-1.4076288,-198.68823,-1.3198617,-39.027733,-1.2474718,80.076744,-1.8149759,-212.98546,-1.1889853,9.071858,-0.11854081,31.07169,38.620533
-109.330284,-1.5436858,69.623375,-1.4227791,-92.99223,15.052022,0.0,-1.4683402,-222.92401,-1.366619,-61.367645,-1.3400369,67.544304,-1.860986,-224.59296,-1.2286975,-11.734598,0.108755216,9.212306,38.418873
-121.01204,-1.2078964,46.81373,-1.1591411,-108.44786,14.98817,0.0,-1.1073889,-239.51172,-1.015433,-79.58812,-1.0297741,60.926945,-1.4990681,-228.36497,-0.8907202,-28.613037,0.28775993,-7.960594,37.83192
-114.42054,-0.34584472,34.961964,-0.3258889,-109.91993,15.428457,0.0,-0.26941943,-241.01881,-0.20331043,-85.35727,-0.24168636,64.62019,-0.6604317,-219.79575,-0.091557845,-32.725952,0.35864884,-9.942227,36.813107
-89.766785,0.8878966,40.83083,0.91477853,-92.97235,16.351982,0.0,0.88341737,-224.5648,0.90195054,-73.87607,0.8695555,79.634964,0.49572942,-198.01389,1.028316,-18.907574,0.3066545,8.988514,35.32428
-54.545834,2.0763602,64.611206,2.1215515,-60.723278,17.446074,0.0,1.9731749,-194.51392,1.9121114,-47.420654,1.9196978,102.23261,1.5813701,-167.70895,2.0981746,10.557283,0.16655008,45.350502,33.415707
-21.412382,2.7230718,98.11995,2.7717068,-24.130146,18.243288,0.0,2.5583792,-162.25923,2.3914561,-15.96003,2.457873,124.356575,2.1504507,-139.00908,2.6765022,45.30177,0.0011891644,86.03903,31.268635
-2.927904,2.536743,127.525116,2.5661812,2.1456437,18.390305,0.0,2.378327,-141.9051,2.1131158,6.815581,2.2225006,136.58328,1.9586585,-123.8703,2.504898,71.00056,-0.13366935,113.624626,29.188084
-5.908246,1.6265665,139.67897,1.6345465,6.5461802,17.872807,0.0,1.5318311,-143.73442,1.2245698,10.19465,1.3224695,132.42255,1.1333771,-130.41791,1.6841825,76.249954,-0.2164992,114.83222,27.546406
-28.730288,0.44617847,128.34557,0.4647258,-13.882469,17.019684,0.0,0.43662047,-169.33498,0.17387591,-8.307101,0.19044553,111.49316,0.10626905,-158.75565,0.62067246,57.906284,-0.26246956,86.99391,26.709003
-62.939377,-0.49306822,96.68123,-0.41491953,-52.47479,16.269772,0.0,-0.43009192,-211.25493,-0.5753679,-42.28085,-0.6846453,79.67481,-0.66448367,-200.9396,-0.23752487,21.774698,-0.29976183,38.67887,26.955942
-97.65113,-0.91417265,55.00793,-0.74982876,-96.54311,15.89492,0.0,-0.80846,-256.98047,-0.8140833,-80.14677,-1.0396032,46.309944,-0.9632681,-244.90248,-0.6594463,-20.99128,-0.3392312,-15.138728,28.419027
-123.958336,-0.83424884,15.798441,-0.60843176,-133.03969,15.917513,0.0,-0.7177777,-294.49982,-0.6142254,-110.45265,-0.8998417,20.233429,-0.8511758,-279.72107,-0.66377026,-58.865677,-0.36260074,-59.757107,31.03419
-137.43605,-0.37195235,-11.1867075,-0.15208909,-153.24539,16.268028,0.0,-0.27136165,-316.46423,-0.110697426,-125.85342,-0.392213,6.6808114,-0.45504782,-299.42783,-0.32348263,-83.58355,-0.34056607,-85.588234,34.52869
-138.53079,0.4577214,-21.60426,0.6040481,-154.82831,16.9696,0.0,0.5260535,-321.54752,0.7035785,-124.61234,0.4627707,6.162279,0.2442187,-304.07468,0.4116522,-91.663124,-0.26526532,-89.7964,38.438454
-131.5425,1.7068328,-16.656134,1.754417,-141.28903,18.10015,0.0,1.7417717,-313.38257,1.9151293,-110.074585,1.720572,15.214988,1.3654972,-298.37027,1.6352341,-84.47204,-0.16698107,-75.536835,42.1837
-122.83718,3.227694,-1.3927774,3.2027717,-119.741005,19.531015,0.0,3.244911,-298.3113,3.394009,-89.01717,3.2450693,28.277508,2.8346453,-289.02386,3.1910398,-67.45394,-0.0972309,-50.147346,45.195927
-118.625145,4.481113,17.630524,4.433229,-98.11631,20.734564,0.0,4.5069523,-283.06253,4.595607,-69.45727,4.506751,39.835003,4.156729,-282.0091,4.494948,-48.481815,-0.08892903,-22.982622,47.056126
-122.7124,4.718179,34.34056,4.682026,-82.68185,20.958473,0.0,4.7783957,-272.93375,4.763006,-58.261913,4.7559,46.170578,4.5694275,-280.68335,4.7600327,-35.298832,-0.12604824,-2.9874122,47.613735
-134.86705,3.4906723,44.438698,3.4698915,-76.35864,19.731035,0.0,3.600208,-270.53326,3.4607816,-58.954845,3.5353372,46.37809,3.5528665,-285.12085,3.541781,-32.668617,-0.14908256,3.8650815,47.02101
-150.45518,1.0856782,46.32551,1.0666803,-77.95862,17.301472,0.0,1.2427121,-274.9778,1.0088327,-70.27041,1.1249946,42.584305,1.2979635,-292.392,1.1661872,-40.383976,-0.09524297,-3.2905636,45.65043
-161.73203,-1.5249887,41.927456,-1.5477531,-82.392365,14.6076765,0.0,-1.3407717,-281.77258,-1.5951055,-86.09731,-1.5027807,39.399887,-1.2926925,-297.37396,-1.3624393,-53.13518,0.055104807,-19.434982,43.93713
-160.75525,-3.2474737,36.79692,-3.259981,-82.18742,12.73678,0.0,-3.071504,-284.0677,-3.2646024,-97.38626,-3.249472,42.455273,-3.1301863,-294.16858,-2.961719,-62.605164,0.25905114,-35.16942,42.196404
-143.21126,-3.5353289,38.26372,-3.5142233,-70.60563,12.269499,0.0,-3.4063103,-275.7188,-3.4924994,-95.99295,-3.5658808,55.944794,-3.6101737,-278.5106,-3.1388018,-61.29882,0.43291515,-40.678165,40.518578
-111.53344,-2.6626306,51.426975,-2.594126,-45.617958,12.998312,0.0,-2.603232,-255.19487,-2.5937731,-79.13871,-2.724654,79.82209,-2.9244385,-250.76503,-2.2244768,-46.629524,0.50065273,-30.816275,38.779793
-75.18437,-1.4222203,75.09473,-1.3118111,-12.47701,14.19675,0.0,-1.4231597,-227.82306,-1.3719599,-51.889374,-1.5128659,108.314285,-1.8072051,-217.6203,-1.0313421,-23.037914,0.43614396,-8.5299225,36.785847
-46.941933,-0.52792174,101.032974,-0.39589822,17.600594,15.177831,0.0,-0.54991984,-204.01297,-0.5171601,-25.352108,-0.63358736,131.50737,-0.9624664,-190.26868,-0.24824837,-0.3667835,0.2732409,16.030025,34.46157
-36.544926,-0.19885725,118.06461,-0.070608094,32.919952,15.690679,0.0,-0.19537735,-193.684,-0.21606183,-10.83393,-0.29870313,140.06367,-0.6366573,-178.98712,-0.049642347,11.166409,0.08155491,30.861364,32.006702
-45.412308,-0.19760819,118.654175,-0.09919119,27.88996,15.898171,0.0,-0.14419575,-200.34029,-0.22134408,-13.414916,-0.2769159,130.57751,-0.6234138,-187.2298,-0.16488881,6.4737873,-0.071967326,28.784496,29.913914
-66.020454,-0.19389671,103.228966,-0.15213476,6.2133613,16.05323,0.0,-0.10190754,-219.04604,-0.22344498,-29.312336,-0.25544602,107.94703,-0.6004251,-209.48108,-0.25234684,-12.052313,-0.15103222,11.039158,28.826523
-86.42809,-0.086770006,79.20311,-0.12652627,-21.525188,16.21173,0.0,0.008531037,-239.748,-0.15224198,-48.728024,-0.14787017,82.895226,-0.45067057,-234.5605,-0.2097606,-36.718502,-0.15588316,-14.334072,29.283016
-96.75263,-0.02310456,56.004776,-0.15881221,-43.884003,16.221815,0.0,0.04329553,-253.26854,-0.16616245,-61.722572,-0.098773465,66.22916,-0.30166182,-251.88934,-0.17781216,-59.191628,-0.11259801,-37.536118,31.450424
-93.28878,-0.16624847,40.274147,-0.3948073,-53.8135,15.938898,0.0,-0.1373174,-255.5341,-0.40897948,-62.742786,-0.2533189,63.67702,-0.31638616,-256.22076,-0.30877632,-74.07577,-0.056164254,-51.553104,34.972404
-78.31605,-0.48166555,34.30754,-0.78448206,-50.12759,15.422317,0.0,-0.47498894,-247.66481,-0.8095885,-51.3375,-0.55800873,74.31097,-0.48578984,-248.21927,-0.56710273,-79.487335,-0.014837951,-53.625114,39.01148
-57.157513,-0.74290824,37.378433,-1.0950946,-35.67617,14.927906,0.0,-0.73661715,-233.23364,-1.1143235,-30.181078,-0.7826914,92.606964,-0.6241102,-231.92085,-0.74876434,-75.64103,0.00034236792,-44.163673,42.488247
-35.552643,-0.718205,47.418186,-1.0946611,-14.873555,14.73162,0.0,-0.7030939,-215.82344,-1.0897039,-3.25351,-0.7111507,111.8218,-0.53756124,-212.01257,-0.66369045,-63.764107,-0.003735522,-25.378126,44.433617
-18.990612,-0.343749,61.29042,-0.71657455,7.386262,14.956587,0.0,-0.3314675,-198.76741,-0.69183123,24.268425,-0.30514506,126.28222,-0.18291903,-192.84613,-0.28637487,-46.52598,-0.013133473,-1.1084806,44.322502
-13.114492,0.25299427,74.10356,-0.08077625,25.56128,15.525913,0.0,0.23623984,-186.32793,-0.07319766,45.370884,0.2865533,131.88535,0.3167993,-178.79825,0.24616091,-29.13597,-0.022307219,22.58914,42.253296
-23.15334,0.84270847,79.23284,0.587604,33.583134,16.21513,0.0,0.7716301,-184.10933,0.5221209,51.891056,0.82970333,125.789474,0.76344454,-174.3553,0.7334796,-19.329437,-0.03959684,37.661205,38.89922
-51.413464,1.182017,70.20016,1.0366023,26.522135,16.719471,0.0,1.0480759,-197.18428,0.85266286,37.547863,1.0987701,106.67622,0.9658216,-182.79613,0.98594123,-25.10069,-0.07492611,36.242596,35.254604
-94.00705,1.0571444,44.192066,1.0321374,3.673372,16.717445,0.0,0.8772543,-226.3633,0.7212763,2.3031886,0.917871,76.10295,0.7675562,-203.67259,0.84107906,-50.483273,-0.12066414,14.683681,32.283276
-139.41367,0.333319,5.7867126,0.4182082,-28.475527,15.977196,0.0,0.14676966,-264.78445,0.017062271,-44.39991,0.19452836,40.132233,0.07189049,-230.45703,0.18876141,-91.11983,-0.14690784,-22.161488,30.635115
-171.16399,-0.95677423,-31.433825,-0.7854983,-55.815964,14.507532,0.0,-1.1029946,-297.66687,-1.2090333,-84.22135,-1.0184653,9.449656,-1.0940177,-250.4224,-0.9500803,-132.44731,-0.12154317,-59.198666,30.534008
-174.86314,-2.5513418,-47.8327,-2.3224373,-60.77645,12.648656,0.0,-2.6230283,-307.09225,-2.6967807,-95.84969,-2.4832158,-3.6338596,-2.525906,-248.53705,-2.3568342,-153.23766,-0.038404778,-74.7848,31.879227
-146.83061,-4.0201445,-26.063759,-3.7652824,-30.905397,10.984624,0.0,-4.0120544,-281.00446,-4.04401,-65.17035,-3.8339202,8.820084,-3.8854558,-215.23972,-3.6622663,-135.00084,0.07315748,-50.47684,34.476765
-99.45218,-4.950998,37.933334,-4.7028646,31.776552,10.082507,0.0,-4.8893266,-222.25465,-4.8826094,4.736272,-4.728286,44.091618,-4.844527,-154.74359,-4.5142465,-73.687195,0.1691983,16.839596,38.25091
-58.742496,-5.1430316,127.58323,-4.927353,106.732735,10.213227,0.0,-5.0716953,-151.73929,-5.046283,90.08425,-4.9944205,86.560356,-5.229267,-88.1964,-4.7484617,13.242892,0.22386393,107.76448,43.302505
-53.32659,-4.6757145,208.36845,-4.4998746,160.85782,11.232396,0.0,-4.6324677,-101.662704,-4.6148524,153.77141,-4.6753993,112.60409,-5.0600905,-47.34429,-4.4360147,90.60693,0.24507335,184.76022,49.757607
-99.46026,-3.8216116,241.98438,-3.6715622,163.52824,12.684204,0.0,-3.8158445,-100.53748,-3.8225534,162.1693,-3.9603305,101.62099,-4.4795003,-59.760586,-3.7892175,120.65378,0.2600766,208.56631,57.487576
-190.29462,-2.8842862,205.78963,-2.7369523,103.38622,14.043653,0.0,-2.8884194,-157.43782,-2.9178324,103.181175,-3.071558,47.66517,-3.6509104,-132.98683,-3.0198038,82.49772,0.28587148,158.92183,65.849
-296.358,-2.06515,106.49967,-1.9091165,-3.1256654,14.952664,0.0,-2.025373,-254.91379,-2.0648692,-5.0598955,-2.1775563,-35.324757,-2.703116,-247.31766,-2.2500956,-15.336605,0.3110375,47.506065,73.61753
-378.19254,-1.4185369,-20.876722,-1.2657278,-117.57835,15.335278,0.0,-1.280627,-355.75378,-1.3231976,-121.10067,-1.3609749,-118.61677,-1.7313752,-362.8633,-1.5119501,-137.42442,0.30304646,-85.5836,79.19531
-404.81494,-0.89601666,-129.39638,-0.77258974,-197.41519,15.354424,0.0,-0.6331085,-420.6233,-0.68994266,-199.78877,-0.63918865,-171.9428,-0.821695,-438.03946,-0.8040827,-238.38669,0.23351566,-190.817,81.04933
-367.9623,-0.44185957,-182.85117,-0.36401498,-216.06844,15.253237,0.0,-0.06818324,-426.79175,-0.1668982,-213.7501,-0.020681797,-177.69324,-0.069559515,-449.331,-0.15803112,-284.7395,0.10229323,-233.02963,78.21432
-284.552,-0.0754695,-171.74664,-0.030789476,-174.10027,15.184476,0.0,0.360908,-377.4255,0.19219235,-164.67776,0.43858317,-138.20468,0.41839305,-401.1586,0.32976356,-269.1801,-0.05578308,-206.44571,70.64636
-186.83557,0.10119683,-114.04313,0.1488422,-95.80269,15.137195,0.0,0.5406086,-296.93,0.2933765,-78.9376,0.62890464,-72.603424,0.54734147,-320.82104,0.52658457,-209.97733,-0.18581478,-133.239,59.301582
-106.71131,-0.019109273,-42.007523,0.063636914,-14.653772,14.996913,0.0,0.3751886,-216.49648,0.07092584,8.242252,0.4492303,-5.998113,0.27850568,-242.6798,0.34130153,-137.73993,-0.24084531,-48.514713,45.887848
-63.07698,-0.44736552,15.196561,-0.3305686,42.839012,14.674706,0.0,-0.12107939,-159.32457,-0.43809032,69.55195,-0.10254298,42.10161,-0.32831627,-191.7149,-0.1980143,-79.10086,-0.20599699,17.687256,32.40825
-57.83861,-1.0601333,42.620274,-0.94879836,66.01772,14.19343,0.0,-0.795379,-133.52196,-1.0799227,94.23835,-0.88816744,63.973248,-1.1107215,-175.44238,-0.92767084,-46.937386,-0.102602884,51.0031,20.649769
-80.152626,-1.6492909,40.10088,-1.5953553,59.020214,13.680027,0.0,-1.4126486,-134.22997,-1.6410332,86.46758,-1.6690414,62.78084,-1.845914,-186.42201,-1.6044242,-40.453094,0.030770138,52.610527,11.795154
-114.13905,-2.0063627,15.940048,-2.0356288,33.766754,13.30297,0.0,-1.7482593,-150.47177,-1.9261947,58.059235,-2.1915743,47.468983,-2.311543,-210.67981,-1.9905189,-51.339577,0.16449963,32.566185,6.238421
-145.18414,-1.97889,-19.424591,-2.0700147,3.1786911,13.217565,0.0,-1.6569799,-170.91806,-1.8078549,21.986885,-2.2630966,27.794674,-2.336815,-235.24945,-1.9202248,-69.71709,0.2890838,3.2898786,3.6357615
-162.99371,-1.5000337,-55.8838,-1.59663,-22.052254,13.526368,0.0,-1.1090002,-186.13478,-1.252185,-10.395335,-1.8053157,11.827906,-1.8495618,-251.26836,-1.3450885,-86.54363,0.40251473,-23.457499,3.1209056
-162.47237,-0.63172674,-83.59783,-0.6761957,-34.120205,14.221724,0.0,-0.21858355,-188.89244,-0.35441115,-29.881353,-0.9033106,5.3120437,-0.93376374,-253.7506,-0.37724134,-93.76572,0.48863286,-37.470848,3.599885
-143.99579,0.38998008,-93.95846,0.4270447,-28.815035,15.123307,0.0,0.7445351,-175.08449,0.6332325,-30.513903,0.16862887,11.150064,0.135329,-241.0736,0.6922093,-85.207016,0.5121765,-31.733784,4.046541
-113.20624,1.1876,-82.822105,1.2993749,-7.116951,15.8912115,0.0,1.4157141,-145.59949,1.3496399,-11.843873,1.0066727,28.4633,0.9503192,-215.5027,1.4625353,-59.10492,0.44057164,-5.2891574,3.7301822
-79.34621,1.4089783,-53.6165,1.562169,24.04425,16.176136,0.0,1.4962884,-107.12656,1.4852916,19.801771,1.2533116,52.31642,1.1537199,-183.46068,1.6041225,-20.20347,0.2754167,35.074863,2.3424373
-51.82317,0.95082134,-16.983488,1.0998486,53.858166,15.839856,0.0,0.93802327,-70.04368,0.9754608,53.308178,0.80801475,75.31457,0.6542161,-153.77368,1.0598153,21.23123,0.065221116,76.83777,0.004823415
-36.42623,0.05945775,13.726674,0.15871792,72.230835,15.071838,0.0,0.0050464193,-43.986755,0.07044802,77.67209,-0.086249225,90.73986,-0.28702354,-134.08833,0.10850314,53.708317,-0.11528407,107.1373,-2.8448765
-33.407864,-0.8064327,28.39535,-0.78894,74.23966,14.279059,0.0,-0.8672596,-33.780823,-0.8020358,86.88176,-0.9746616,95.41011,-1.1944351,-127.66784,-0.7899047,69.57575,-0.20497288,118.39975,-5.644315
-38.54047,-1.2706835,23.868494,-1.3378961,61.6927,13.812439,0.0,-1.3358746,-38.148148,-1.2987531,81.783775,-1.4668947,90.537125,-1.663516,-132.69025,-1.2757795,67.7705,-0.18774608,110.90918,-7.9353814
-46.225605,-1.2689679,3.8462627,-1.3881135,41.182755,13.741833,0.0,-1.3472115,-51.481556,-1.3554052,68.26028,-1.4626532,80.36518,-1.5937654,-144.21808,-1.294098,53.077225,-0.09551513,91.35641,-9.543093
-52.570995,-1.0397984,-24.003212,-1.1560768,20.31458,13.855751,0.0,-1.1267759,-67.07201,-1.1752813,53.470203,-1.1690089,69.795334,-1.2075089,-157.198,-1.077127,33.0647,0.013412091,68.959564,-10.6530075
-56.823437,-0.9024856,-51.487698,-0.9686569,4.4377675,13.873116,0.0,-0.98243415,-79.87537,-1.0402775,42.563477,-0.9133288,62.429565,-0.8575038,-168.62907,-0.93536246,14.794876,0.08251538,51.592007,-11.740399
-60.91806,-1.0056808,-72.371956,-1.0056729,-4.77213,13.688302,0.0,-1.072391,-87.8376,-1.0941796,37.21566,-0.8977035,59.691708,-0.7715455,-178.11378,-1.020688,2.7324226,0.07544895,43.491173,-13.384564
-67.91054,-1.2242908,-83.56051,-1.1709468,-8.87368,13.466115,0.0,-1.2925581,-91.762085,-1.2414862,35.974365,-1.0591187,60.897697,-0.9035451,-187.0735,-1.220149,-1.8304459,-0.01801061,44.847965,-16.030361
-80.23403,-1.2477207,-85.25244,-1.1582652,-11.103437,13.53667,0.0,-1.3382133,-94.15679,-1.2052336,35.705467,-1.1083252,63.910076,-0.9681712,-197.33197,-1.2279551,-0.21011522,-0.18163086,52.789413,-19.78942
-98.44971,-0.77758694,-80.37287,-0.65209293,-14.59326,14.1782675,0.0,-0.88957894,-97.68439,-0.69580466,33.301304,-0.71043843,66.096016,-0.6231701,-209.7873,-0.73518234,4.776428,-0.37396428,62.986786,-24.35302
-120.87954,0.28506532,-73.53964,0.45954794,-21.127956,15.426347,0.0,0.18293805,-103.95658,0.39892653,26.885288,0.2979057,65.31816,0.30794564,-223.81128,0.3695939,9.868777,-0.5350513,71.11456,-29.055391
-144.16219,1.7530702,-69.745255,1.9756758,-30.795582,17.010107,0.0,1.7017478,-113.1443,1.899281,16.120861,1.7731329,60.679077,1.6948214,-237.61871,1.891329,12.081855,-0.6048235,73.76939,-33.073936
-164.3142,3.2098908,-72.75957,3.4426942,-42.242455,18.451195,0.0,3.2265427,-124.17653,3.3719728,1.9334975,3.29551,52.898785,3.128276,-249.12288,3.3788261,9.338776,-0.5503043,69.117836,-35.68383
-177.62976,4.202449,-83.28612,4.376844,-52.88231,19.291767,0.0,4.2643213,-134.84213,4.3379273,-13.581894,4.37384,44.40072,4.125775,-256.37598,4.3390503,1.4738405,-0.38653934,57.81583,-36.488792
-181.13754,4.484269,-97.54633,4.53844,-58.89468,19.343292,0.0,4.542118,-141.63332,4.5491886,-26.81843,4.7196193,39.048893,4.4071894,-257.30893,4.5140586,-8.642232,-0.17495859,43.988586,-35.53647
-173.02057,4.158861,-107.69469,4.079994,-55.741985,18.801775,0.0,4.165939,-140.17621,4.14645,-32.753433,4.411773,41.164265,4.0588202,-249.62877,4.0409718,-15.125812,0.0036029632,34.942383,-33.28868
-153.55751,3.5996294,-105.08292,3.4376414,-40.06269,18.12257,0.0,3.5330157,-127.20145,3.5535882,-26.696035,3.8188105,53.564842,3.4518473,-232.00795,3.354886,-11.476907,0.08596453,38.32885,-30.451464
-126.33587,3.1745386,-85.39874,3.013522,-12.523673,17.707558,0.0,3.037674,-103.53796,3.1580806,-7.5359797,3.316161,75.266716,2.9557621,-206.35886,2.8741362,5.215126,0.05338643,57.425964,-27.735386
-98.51109,2.9746451,-52.538807,2.8801699,20.389894,17.623234,0.0,2.7876847,-75.86289,3.0190525,19.66918,3.0105045,100.43354,2.663221,-179.24123,2.6972296,30.977865,-0.06321488,87.542145,-25.630848
-78.98188,2.7667017,-18.038984,2.7465663,47.750698,17.573202,0.0,2.5577419,-54.997425,2.8439057,44.396046,2.691651,119.97149,2.3490825,-160.34154,2.5546033,55.509583,-0.19765094,116.75984,-24.273682
-74.76395,2.21511,4.3635187,2.2221155,58.830185,17.158388,0.0,2.0181088,-50.885323,2.2584412,55.248997,2.0511296,125.5417,1.6990364,-158.04718,2.0597441,67.05959,-0.27476552,131.51198,-23.449764
-87.39453,1.1879969,5.975089,1.1618345,48.598324,16.217136,0.0,1.0430241,-67.09357,1.1437087,46.078327,0.9798224,113.91298,0.613683,-174.62633,1.0511221,58.889847,-0.24240677,123.90704,-22.715324
-111.484024,-0.10547372,-12.184667,-0.18987146,20.841139,14.972886,0.0,-0.15745275,-98.29813,-0.23687588,19.885305,-0.30333683,89.093925,-0.66615355,-204.13544,-0.2530549,33.323437,-0.099916466,96.328545,-21.597519
-136.3443,-1.2467036,-39.848736,-1.3598745,-12.888638,13.885093,0.0,-1.1768364,-132.27477,-1.4076902,-11.89445,-1.3857902,60.98955,-1.706761,-234.42401,-1.3974608,1.0363545,0.091739364,60.682068,-19.786758
-149.9924,-1.881797,-62.407642,-1.9604663,-37.863167,13.343462,0.0,-1.6889352,-155.15224,-1.990207,-34.33294,-1.9335539,41.336456,-2.1684892,-252.11143,-1.993119,-23.767696,0.23327187,33.016426,-17.25698
-143.8361,-1.915447,-67.35584,-1.9027495,-42.0703,13.451721,0.0,-1.633819,-157.16164,-1.90627,-35.57115,-1.8805451,38.947895,-2.0022113,-248.03352,-1.9379743,-29.59219,0.2406797,26.553247,-14.280972
-116.23345,-1.5017912,-49.263195,-1.375849,-20.935976,14.037228,0.0,-1.1932229,-136.38156,-1.3536566,-11.901969,-1.4129491,56.311626,-1.4274029,-220.85185,-1.4155658,-12.377844,0.09917517,46.33833,-11.335104
-73.5391,-0.8863401,-11.488156,-0.6618839,20.89703,14.82741,0.0,-0.6188449,-99.20501,-0.6247453,30.747768,-0.8005337,88.769196,-0.747981,-177.53415,-0.7224668,23.108437,-0.122134,87.4857,-8.940641
-28.05063,-0.25024998,35.620895,0.037420433,71.37413,15.623219,0.0,-0.07495443,-57.611954,0.06719313,79.34028,-0.22904086,126.43887,-0.16903467,-130.62085,-0.0855912,65.52068,-0.3106279,137.3505,-7.4952073
6.5528975,0.3280098,78.9822,0.6375659,115.67502,16.34011,0.0,0.38887364,-24.49052,0.6342033,118.927284,0.2433921,158.02953,0.25441617,-93.391495,0.40116566,101.621315,-0.37993518,180.4872,-7.1415834
20.490541,0.8004292,107.57173,1.0892599,141.71205,16.925467,0.0,0.75164115,-8.977419,1.0417951,138.13588,0.6068984,174.96638,0.5351285,-74.97503,0.71563643,121.226494,-0.3185176,204.24011,-7.71976
11.660901,1.0710484,115.84029,1.2978731,144.19144,17.27191,0.0,0.9379243,-13.617035,1.2245641,132.76337,0.80529237,174.20744,0.64825946,-77.42577,0.82090557,120.3629,-0.18405518,202.79068,-8.806901
-13.571921,1.0140154,104.843704,1.1492923,125.899475,17.240362,0.0,0.8402454,-34.04915,1.0924757,106.59827,0.7384669,158.87628,0.5203785,-95.64002,0.65861744,101.84179,-0.054463953,178.53201,-9.836552
-42.759544,0.59139335,81.39144,0.63258696,96.29746,16.792585,0.0,0.43722403,-60.77223,0.6329382,69.86999,0.37148115,136.84242,0.12859069,-119.57236,0.23454785,73.80951,0.021661378,140.94116,-10.265418
-62.02045,-0.042841528,55.90818,-0.0661596,68.2439,16.104317,0.0,-0.11533527,-82.19424,0.0017726959,36.061695,-0.16341904,117.931015,-0.39876944,-137.6641,-0.30195343,47.15796,0.039898522,103.62288,-9.727236
-61.493977,-0.58483857,39.28371,-0.6261038,53.60371,15.516339,0.0,-0.54255766,-88.465996,-0.51959616,17.547552,-0.6044688,110.471054,-0.81272894,-140.71184,-0.7007376,32.159748,0.020475,79.99365,-8.146113
-39.727585,-0.77282816,38.90234,-0.79574853,58.60158,15.323829,0.0,-0.6389708,-75.45595,-0.70027065,20.790413,-0.7376279,117.980865,-0.912478,-125.52299,-0.7741309,34.614456,-0.017795116,78.264595,-5.757131
-4.9240365,-0.57444894,55.033504,-0.5715618,80.57855,15.572227,0.0,-0.42321962,-47.313084,-0.5228374,42.947605,-0.55847687,137.23578,-0.7046723,-97.03968,-0.540071,52.7811,-0.06552159,97.47941,-3.023191
28.230047,-0.1960265,79.81609,-0.18489118,108.31085,16.04346,0.0,-0.10660627,-15.616407,-0.17860751,72.27069,-0.2582077,159.09117,-0.39171398,-67.1808,-0.20090637,77.22338,-0.11337761,127.123055,-0.4730032
45.23447,0.10247996,100.36808,0.09967594,126.76182,16.448658,0.0,0.10393071,5.4675984,0.107654944,93.122894,-0.039049614,172.3557,-0.18621443,-49.88902,0.03598605,94.680954,-0.14318031,151.53763,1.4987768
38.58825,0.21441601,104.914604,0.18964025,124.28491,16.64826,0.0,0.17996982,5.829445,0.2561339,93.36693,0.05972656,169.02975,-0.12713249,-54.48244,0.12689868,94.36027,-0.13290484,157.3064,2.793314
10.907254,0.22818214,88.4556,0.191828,98.23884,16.706642,0.0,0.25771776,-15.966023,0.34908742,69.95034,0.15725707,148.01552,-0.07407865,-81.094536,0.19216098,73.01343,-0.0718623,139.47765,3.6628935
-27.203089,0.28929242,54.707157,0.2620754,55.795002,16.762772,0.0,0.46500194,-52.667732,0.49384046,29.658627,0.36891076,115.267166,0.1268979,-120.88807,0.36368003,35.91276,0.02774877,103.2271,4.6229353
-62.677143,0.4403628,13.749338,0.44225556,9.947518,16.870132,0.0,0.7728011,-92.321976,0.6881737,-14.6854,0.6637788,80.72248,0.4798081,-160.55067,0.64241385,-6.2256274,0.1324031,60.741905,6.238998
-85.365,0.5920444,-22.51335,0.63426274,-26.377455,16.958307,0.0,1.0136528,-123.36195,0.8197933,-49.742867,0.88180494,54.198906,0.8319548,-188.05759,0.8986357,-41.880455,0.20132586,25.884377,8.855183
-90.75011,0.6248652,-44.45049,0.7051191,-44.839127,16.923183,0.0,1.0317537,-138.2041,0.7781139,-66.066055,0.87596285,42.36606,1.0084213,-196.68951,0.9905315,-62.383114,0.20461698,9.504267,12.381898
-79.84492,0.49279055,-47.063206,0.5938254,-43.318005,16.727633,0.0,0.804435,-134.60152,0.5463757,-60.25375,0.6249603,47.50586,0.9379539,-186.14326,0.86659086,-63.691486,0.13626397,16.731571,16.237423
-57.535767,0.22502868,-30.64455,0.31913054,-25.070763,16.411083,0.0,0.42459413,-115.312614,0.1844495,-35.09086,0.21443021,67.64335,0.6555388,-161.27608,0.5600104,-46.6977,0.01599679,46.223,19.49143
-30.532927,-0.14846036,-0.14856881,-0.089063644,3.418535,16.020533,0.0,-0.015447487,-86.68974,-0.25814173,1.8070192,-0.26900712,97.52656,0.21144427,-129.59314,0.11262319,-16.592527,-0.119426064,91.03608,21.178827
-5.4242854,-0.63908017,36.41463,-0.631492,34.819004,15.557937,0.0,-0.5030077,-56.52175,-0.7868595,40.39575,-0.80297244,130.24254,-0.3872818,-98.51674,-0.46449503,18.567455,-0.22983332,140.85057,20.670975
12.90149,-1.2398204,70.06639,-1.2865683,62.778214,15.018495,0.0,-1.055766,-31.708227,-1.3981799,70.96572,-1.3779385,159.18117,-1.1199985,-73.39602,-1.1338032,49.897408,-0.2836166,184.89647,17.951742
22.127905,-1.8123772,92.757935,-1.9051917,82.78441,14.496588,0.0,-1.5872127,-16.663858,-1.9595286,86.41323,-1.8796642,179.70766,-1.8302985,-56.918255,-1.7302881,69.810234,-0.26630414,214.58119,13.675566
22.570816,-2.0499225,98.81953,-2.1754842,92.32602,14.24856,0.0,-1.8320943,-12.892926,-2.1652935,83.63538,-2.0388017,189.96799,-2.181344,-49.687187,-1.9378173,73.77089,-0.18708499,225.18027,8.969785
16.738546,-1.605355,86.31341,-1.7485462,91.11146,14.607571,0.0,-1.4498986,-19.235172,-1.6652403,64.29389,-1.5433738,190.82852,-1.7922627,-50.862232,-1.422683,61.577602,-0.081435926,216.73912,5.0460873
8.69399,-0.33707055,58.391808,-0.4826636,81.67234,15.760136,0.0,-0.27530146,-32.085796,-0.3203404,34.996155,-0.27186212,185.34967,-0.5051225,-58.02887,-0.072983205,37.99095,-0.0018696084,194.40146,2.7830453
3.0542839,1.4988402,23.622414,1.3632234,69.52536,17.5298,0.0,1.4650451,-45.767445,1.5923377,6.1063833,1.5196798,177.9681,1.4066008,-66.832756,1.8221563,11.979601,0.0065023187,167.58308,2.4430256
3.3488774,3.2828596,-6.251848,3.1639204,61.620514,19.357986,0.0,3.1684957,-53.964443,3.4160106,-11.633144,3.2299075,173.19513,3.2780547,-71.79625,3.6203074,-6.1503754,-0.065182574,147.08125,3.634913
10.190899,4.3165317,-21.198658,4.2163453,63.033875,20.550272,0.0,4.144727,-52.431145,4.4221406,-11.884106,4.190142,173.8866,4.36422,-68.82541,4.619698,-9.172012,-0.17864203,140.47719,5.5311527
20.542723,4.1912208,-18.001654,4.1113234,73.82823,20.651726,0.0,3.9986334,-41.540386,4.208257,3.818011,4.023446,179.88133,4.236318,-57.936657,4.4304204,3.3959432,-0.2691072,148.19778,7.238114
29.04362,3.0021694,-2.1502824,2.9449666,88.5585,19.70026,0.0,2.8447282,-26.588741,2.9170175,26.563568,2.8461976,188.05551,3.0032728,-43.880688,3.1803381,24.896973,-0.28594172,163.08008,8.14957
30.866625,1.2761267,15.048265,1.2409745,99.154816,18.187561,0.0,1.2141199,-15.170261,1.133656,44.638718,1.1841556,194.01854,1.2231847,-33.743706,1.425282,44.985203,-0.2236418,174.21298,8.150329
24.272266,-0.32646477,22.400965,-0.3467532,99.357574,16.761833,0.0,-0.26292711,-13.199265,-0.45504975,49.356453,-0.32838112,194.44646,-0.41725934,-33.00098,-0.16642813,54.843964,-0.119949035,172.80167,7.589678
11.29108,-1.3386713,14.21571,-1.3529896,87.87916,15.876911,0.0,-1.176252,-22.105526,-1.406898,38.734535,-1.2645689,188.63756,-1.4406778,-42.594864,-1.146655,51.10979,-0.025178565,156.52272,7.0607233
-3.5001645,-1.659208,-7.5603127,-1.6668147,68.73244,15.604302,0.0,-1.4710884,-38.58387,-1.6732949,17.584938,-1.5557256,178.62004,-1.7461923,-58.596493,-1.4473865,36.734035,0.031172477,130.24127,7.099275
-14.943502,-1.502774,-34.821804,-1.4878196,49.198536,15.697314,0.0,-1.3633301,-56.411785,-1.5057584,-5.041917,-1.4234612,168.1634,-1.5518547,-74.16846,-1.3097893,19.112309,0.051455002,103.45871,7.9349036
-18.952353,-1.1987553,-57.05486,-1.1401886,36.902122,15.828407,0.0,-1.1381336,-68.96703,-1.2285341,-19.337969,-1.1756518,161.39478,-1.1937764,-82.508385,-1.0673685,6.92571,0.054097656,86.3138,9.40319
-13.687654,-0.9826389,-65.6486,-0.87308407,37.11206,15.822118,0.0,-0.9772011,-71.48704,-1.0413876,-18.114845,-1.0120547,161.40398,-0.9231168,-79.564514,-0.9367118,6.939799,0.049577124,85.80081,11.038702
-0.4737419,-0.9061033,-57.34346,-0.76245064,50.777885,15.729411,0.0,-0.90991265,-62.73287,-0.9638829,0.39632934,-0.955655,168.99358,-0.81542695,-65.74594,-0.9391333,21.507296,0.029802494,103.15927,12.292806
15.80499,-0.8936093,-35.70852,-0.74748784,73.71306,15.71979,0.0,-0.8798842,-45.77595,-0.9152093,31.088734,-0.9233039,181.93605,-0.81448716,-46.09354,-0.97054785,47.385998,-0.019882748,133.01743,12.782394
27.624914,-0.8593664,-10.016176,-0.73388714,97.48013,15.911746,0.0,-0.8348262,-27.382877,-0.8255746,62.973473,-0.84157145,195.32343,-0.83397317,-28.636639,-0.9263767,76.4564,-0.09885724,164.73116,12.446852
27.51974,-0.7641156,8.188012,-0.6546414,112.191284,16.299692,0.0,-0.74636626,-15.713722,-0.66979516,83.003395,-0.68899554,203.2688,-0.8104418,-21.294455,-0.7607436,98.41563,-0.17962372,185.82755,11.557778
11.851397,-0.5685689,9.581244,-0.4420197,110.560455,16.828388,0.0,-0.55139494,-16.859999,-0.40688834,81.5619,-0.43396074,201.4667,-0.6692257,-28.374327,-0.44161913,104.700554,-0.2188228,186.6164,10.579793
-16.175858,-0.1674334,-8.951069,0.018806698,91.6836,17.505201,0.0,-0.11033984,-31.561012,0.07600753,57.26099,0.033339113,189.53331,-0.27832243,-48.000546,0.111434974,92.299225,-0.18318675,164.40704,9.958467
-46.271236,0.57405865,-42.08508,0.8434674,62.786816,18.396646,0.0,0.7174486,-53.643482,0.9052235,18.780048,0.8484726,172.03386,0.50065285,-71.5622,0.98897535,66.068726,-0.070805185,125.76617,9.945277
-64.58389,1.666606,-76.43963,1.999262,37.668434,19.486917,0.0,1.9014382,-71.28446,2.059232,-17.410261,1.9987401,157.5157,1.655472,-85.83012,2.1464956,38.428913,0.08796701,85.64826,10.545379
-60.192593,2.8629951,-94.23146,3.1894047,31.618504,20.5509,0.0,3.1262126,-71.33721,3.253949,-33.17202,3.188224,155.41824,2.8963628,-77.82128,3.2934933,25.70926,0.24887072,62.826096,11.622718
-31.87879,3.7141218,-80.182396,3.9358919,54.134125,21.221027,0.0,3.8935394,-45.72103,4.0310526,-16.946564,3.923904,171.48595,3.7268276,-41.386253,3.978495,41.41938,0.37687415,72.180374,13.097511
8.439972,3.8371363,-29.889936,3.8716393,102.360725,21.25215,0.0,3.827974,2.5659432,4.0414886,28.987535,3.8269913,203.34544,3.7329495,17.088375,3.8710577,88.502846,0.45825163,116.26015,15.127777
38.438232,3.2065387,44.292984,3.0363681,158.97688,20.767504,0.0,2.9702423,57.210392,3.3184752,86.113815,2.9437466,238.7674,2.8971555,77.48482,3.0347579,154.42404,0.49582466,180.31483,18.145962
34.440018,2.2157512,114.42227,1.912983,197.16487,20.235046,0.0,1.8049904,92.87845,2.2993977,125.01823,1.7784666,258.8291,1.6713696,111.85485,1.943003,213.0777,0.49451113,235.0053,22.70184
-16.601582,1.4249748,147.08127,1.1286346,192.03854,20.140707,0.0,0.9622637,85.871765,1.544599,117.948906,0.9785197,246.01923,0.71151537,96.47904,1.1831906,234.77014,0.45071933,247.90346,29.15302
-108.16843,1.1730965,119.13748,1.0239863,133.77473,20.600163,0.0,0.798195,26.826283,1.3527082,53.468792,0.89239925,194.02473,0.4488248,24.830132,1.0580335,200.73195,0.35494554,199.59167,37.342037
-213.90773,1.3560482,31.119165,1.4218085,35.274662,21.233604,0.0,1.171268,-71.61401,1.5707695,-54.816414,1.3415109,113.65932,0.81792814,-85.9521,1.3929049,114.62481,0.20701542,95.88997,46.424854
-297.73062,1.5409524,-90.17981,1.7751325,-71.16075,21.423153,0.0,1.5797279,-177.85309,1.7411355,-171.73787,1.7782694,30.378326,1.3412971,-200.14584,1.6933994,3.607011,0.031540822,-31.840322,54.96713
-330.086,1.3124484,-202.86572,1.5750453,-147.85364,20.760296,0.0,1.541417,-255.05214,1.458252,-256.00076,1.6961566,-26.631336,1.4890636,-278.88284,1.5173367,-93.17616,-0.121017255,-140.18852,61.300686
-301.8949,0.57621074,-269.5023,0.7072388,-169.4206,19.343473,0.0,0.9241967,-278.50778,0.6574594,-279.69308,0.97703266,-38.290897,1.0359646,-298.12634,0.77482593,-143.0464,-0.19390558,-194.25194,64.02823
-228.26857,-0.39016607,-274.06573,-0.48550963,-134.1455,17.723543,0.0,0.004800587,-246.74574,-0.35757726,-240.7845,-0.05640676,-4.459028,0.17457399,-259.1599,-0.2388283,-134.7084,-0.15511446,-183.56955,62.47087
-140.0512,-1.1343633,-226.86331,-1.4386141,-62.75923,16.571852,0.0,-0.74062425,-180.11873,-1.1252092,-161.72375,-0.8734269,57.315575,-0.64765686,-185.83879,-1.052565,-81.19711,-0.020404968,-124.52167,56.90158
-68.65155,-1.3047936,-155.94452,-1.705165,13.643362,16.320118,0.0,-0.9346405,-108.79279,-1.2986573,-76.20152,-1.0597492,121.741295,-1.0157977,-111.068794,-1.2969347,-10.331941,0.1483187,-49.17919,48.473606
-33.18351,-0.83067065,-91.94087,-1.1849436,68.3437,16.98056,0.0,-0.49494946,-58.377636,-0.81550896,-13.187166,-0.53134,167.79703,-0.77167505,-61.26018,-0.88422835,50.001835,0.27142727,11.086039,38.88604
-36.11151,0.06562851,-55.848335,-0.14183481,88.046814,18.193266,0.0,0.35309514,-41.37309,0.09619777,12.7082205,0.45197412,185.97096,-0.07079202,-47.35712,-0.025957033,82.593025,0.2927416,37.343792,29.919868
-67.02715,0.99702185,-54.78284,0.9601381,73.54627,19.42222,0.0,1.2169633,-56.83281,1.0439055,1.8330024,1.4437157,178.40115,0.7269963,-65.123955,0.8906463,83.485176,0.20968713,25.897928,22.995577
-109.4668,1.6105895,-84.037285,1.7016364,35.3787,20.196642,0.0,1.7480569,-94.7137,1.6648067,-35.11204,2.0480137,154.62724,1.2651813,-101.02965,1.5052444,58.863396,0.07422284,-15.128528,18.880993
-146.18176,1.7688373,-130.85612,1.914744,-10.748948,20.31154,0.0,1.8250213,-140.2051,1.8087484,-81.761215,2.122656,127.121155,1.3915033,-138.34787,1.6753205,21.12535,-0.038069744,-70.275406,17.596716
-162.26352,1.6108682,-177.71283,1.7417789,-47.2598,19.90251,0.0,1.607327,-176.71951,1.6091263,-119.45524,1.8336073,108.34783,1.2330693,-161.2311,1.5423892,-13.897387,-0.072288916,-120.26026,18.513725
-148.26297,1.4392952,-206.4723,1.5069146,-58.626774,19.341028,0.0,1.411716,-189.53247,1.3787783,-131.47842,1.5169859,108.19618,1.0857468,-158.14311,1.412896,-30.376297,-0.023379471,-146.32735,20.594362
-104.139046,1.4906756,-204.86261,1.4755493,-37.186493,18.989244,0.0,1.4752684,-171.33646,1.3781686,-109.42597,1.4291531,130.54884,1.1810383,-126.02576,1.5187323,-18.265,0.06889616,-136.94415,22.695368
-41.458687,1.7544638,-172.9756,1.6684276,11.731723,18.967691,0.0,1.7731993,-127.157295,1.6198181,-58.686428,1.5653902,170.3287,1.5016247,-73.37506,1.8347781,20.805983,0.15317017,-94.25709,23.864708
19.780445,1.9927393,-124.70254,1.8741387,70.2116,19.109247,0.0,2.0439346,-73.94362,1.8718098,2.2097037,1.6943004,214.17137,1.7986364,-18.435665,2.1077623,72.537094,0.2015887,-34.938934,23.567282
59.959583,1.9491897,-81.275795,1.8449868,115.69756,19.131207,0.0,2.008527,-32.978397,1.861794,50.229958,1.5771194,246.15677,1.7999064,18.731516,2.0745442,116.491776,0.21990229,17.247578,21.780048
69.5195,1.5656245,-60.165207,1.5049162,132.46259,18.871948,0.0,1.5993001,-19.041348,1.5035349,69.799774,1.1769558,255.88109,1.4312242,26.312553,1.6780728,136.76373,0.22900452,43.423134,18.929333
53.090733,1.0123793,-66.69782,0.98855615,119.09524,18.384338,0.0,0.99784255,-33.44159,0.9446676,60.07834,0.6708478,243.60738,0.859644,6.289726,1.0909361,129.5984,0.23816846,38.30964,15.682555
25.42126,0.5138108,-93.64225,0.49082753,87.26783,17.822792,0.0,0.45876893,-65.27353,0.4053587,33.00373,0.26492995,219.09265,0.33263743,-28.112879,0.53988194,103.18227,0.23513395,10.398446,12.685111
2.5064468,0.14323401,-127.44668,0.083710104,53.775856,17.262142,0.0,0.09189483,-98.878204,-0.024386102,4.824632,-0.0014386872,195.49525,-0.028947067,-60.454494,0.11000915,71.22696,0.20136869,-24.901968,10.333696
-5.758539,-0.2156662,-155.07758,-0.32129237,32.37971,16.64307,0.0,-0.19591108,-121.375694,-0.43094575,-11.816646,-0.27386916,183.11163,-0.29617345,-78.35265,-0.28607956,46.2855,0.1361324,-52.87558,8.695355
2.3330643,-0.7170484,-166.79173,-0.84247214,30.400696,15.89217,0.0,-0.5664502,-125.7812,-0.9393523,-10.507141,-0.71850795,186.65858,-0.618126,-75.98136,-0.7664755,37.10941,0.065683536,-63.0852,7.6083345
22.139648,-1.3742573,-155.68013,-1.4754467,49.520355,15.075922,0.0,-1.0760652,-110.35953,-1.5494602,10.304393,-1.3477646,205.87935,-1.0622646,-53.02064,-1.3293979,49.103367,0.026978228,-49.563854,6.912942
44.700413,-2.0353234,-118.39746,-2.0799816,86.633415,14.411477,0.0,-1.6347634,-78.03889,-2.1204371,47.947807,-2.0079448,236.58173,-1.5690135,-14.054675,-1.8532461,83.80672,0.038469806,-11.602855,6.675181
57.414417,-2.523344,-59.36543,-2.5095816,132.35548,14.112921,0.0,-2.1139088,-37.888557,-2.507199,93.21088,-2.5235665,270.3074,-2.0415184,29.909994,-2.231325,135.51605,0.08318352,42.97966,7.2820024
45.592613,-2.781542,4.8593698,-2.7331815,169.62517,14.226709,0.0,-2.4604037,-6.203159,-2.689087,128.26057,-2.833404,294.10162,-2.4443207,60.70769,-2.474942,188.18654,0.12005353,95.28733,9.32155
-2.26692,-2.8675926,47.3706,-2.8106432,177.1815,14.621186,0.0,-2.6830451,-2.8222558,-2.7439442,130.28743,-2.9736981,293.42,-2.7842362,57.478893,-2.6545005,218.04376,0.11543625,118.97089,13.27384
-86.364174,-2.8116274,41.811504,-2.7496383,139.44841,15.13385,0.0,-2.734258,-41.598507,-2.6957653,82.43884,-2.9382448,258.99033,-2.9906287,6.973637,-2.7338855,203.8902,0.06932032,91.783264,19.15185
-190.05583,-2.505835,-22.232285,-2.4127505,57.9739,15.720627,0.0,-2.4420655,-119.86949,-2.4109733,-13.508469,-2.5867274,194.23047,-2.84517,-85.74643,-2.4915934,140.32825,0.013839326,9.725829,26.2636
-282.7446,-1.7684821,-129.37616,-1.6061414,-44.046944,16.453382,0.0,-1.6096797,-214.86304,-1.6807919,-132.13338,-1.7324319,117.59181,-2.0858586,-194.3828,-1.6582444,44.906544,-0.014209263,-105.82976,33.242287
-332.0514,-0.5524343,-242.26688,-0.30217564,-129.55417,17.365328,0.0,-0.23126836,-291.71973,-0.44663313,-232.87067,-0.36174664,56.45052,-0.6462212,-280.66714,-0.1919061,-47.30526,-0.0023725163,-214.77861,38.366512
-319.28394,0.89189935,-318.66974,1.2066426,-164.95287,18.300959,0.0,1.3690416,-320.0508,1.0327687,-278.90887,1.2156527,34.67657,1.167054,-312.15784,1.5497212,-100.14158,0.03187256,-276.68304,40.07565
-249.04538,2.075742,-332.21445,2.3945892,-137.1,18.934195,0.0,2.636087,-289.4798,2.2493763,-255.64275,2.4571633,60.73277,2.744292,-278.46637,2.9293659,-94.40196,0.061078936,-270.62482,37.48392
-147.05598,2.5486877,-284.41306,2.8055072,-59.601616,18.969427,0.0,3.0922365,-214.62767,2.7361374,-177.45718,2.8944654,123.415886,3.4916558,-196.10353,3.3978233,-36.677383,0.071783915,-204.68456,30.706444
-47.601467,2.1931703,-201.32518,2.3505428,35.1539,18.367287,0.0,2.6388476,-126.71782,2.369888,-79.06695,2.4368792,197.75784,3.1861322,-99.21392,2.8454933,45.87477,0.06924256,-109.85167,20.863506
21.855366,1.3038876,-118.21749,1.3646376,112.78151,17.40034,0.0,1.6160148,-57.465527,1.4494008,2.596715,1.4315689,257.35562,2.1030674,-22.258905,1.6668371,120.56364,0.06256369,-23.083937,9.779147
50.577114,0.3783798,-62.365536,0.3681955,152.30234,16.476278,0.0,0.563251,-25.024261,0.47988296,44.929707,0.422003,285.88162,0.81572104,15.0487,0.48234132,164.37862,0.05013544,29.783941,-0.52684873
45.066418,-0.22352064,-43.421097,-0.283516,152.30362,15.86198,0.0,-0.13930555,-29.071188,-0.17165673,46.246365,-0.213397,281.91757,-0.18071762,13.054836,-0.269354,171.39433,0.02406543,42.28984,-8.367889
22.1699,-0.48443422,-54.266003,-0.58845115,126.79398,15.532829,0.0,-0.47181186,-55.46937,-0.479576,21.359657,-0.46329284,256.04785,-0.73350376,-12.828309,-0.5588346,150.69997,-0.011249995,24.799486,-12.793091
0.008795054,-0.6486879,-78.68656,-0.7917795,95.55917,15.264194,0.0,-0.6775452,-85.58533,-0.67666996,-8.710152,-0.58605945,223.61656,-1.005722,-42.263935,-0.6637769,118.80548,-0.030089665,-4.3134904,-13.753777
-8.69549,-0.9422013,-99.93626,-1.0977113,75.21412,14.879141,0.0,-0.9741922,-104.44587,-0.97782755,-26.344984,-0.81890625,197.86049,-1.222939,-59.046703,-0.8556219,91.857796,-0.00166267,-27.50778,-12.016049
0.7943529,-1.3435447,-106.32723,-1.4586806,74.545746,14.432815,0.0,-1.3352085,-104.66301,-1.3609005,-22.428658,-1.1529392,186.28781,-1.436214,-55.625706,-1.1534196,80.746216,0.077810116,-33.297367,-8.885153
25.974047,-1.5989989,-93.24924,-1.6180875,94.20998,14.177271,0.0,-1.5229365,-86.352516,-1.5877478,3.247258,-1.357416,190.38187,-1.499983,-33.121258,-1.3379288,89.36967,0.16724335,-17.724573,-5.8204193
59.586994,-1.4592831,-62.762127,-1.3581136,128.901,14.340583,0.0,-1.3290651,-54.886024,-1.4338636,44.39696,-1.2154392,207.10773,-1.259053,1.3396072,-1.1877366,115.08708,0.19907497,16.397373,-4.0574837
92.60519,-0.93211573,-21.890297,-0.7363862,170.13148,14.904098,0.0,-0.8057621,-18.181631,-0.9240461,91.45501,-0.76120186,230.77794,-0.7615137,38.124565,-0.72308433,150.496,0.12495422,61.255764,-4.3164287
116.93552,-0.34123576,19.768175,-0.11481211,208.67763,15.554833,0.0,-0.29122463,15.550265,-0.378706,134.367,-0.31903034,254.69597,-0.30670252,68.23824,-0.25392982,185.9745,-0.04448495,106.37632,-6.6589627
127.3493,-0.1393691,52.634594,0.049277715,236.50107,15.853408,0.0,-0.20433554,39.331165,-0.22978356,164.56549,-0.3057035,272.60107,-0.2789888,85.45506,-0.19135444,212.35745,-0.23917706,141.28198,-10.517811
122.353,-0.6078807,69.368675,-0.49543655,248.19724,15.504776,0.0,-0.7587071,48.32371,-0.7349578,176.25412,-0.93707824,279.9584,-0.8845476,87.214485,-0.75843215,223.05132,-0.37115386,157.99084,-14.89155
104.07479,-1.6457512,66.37411,-1.5990824,242.00098,14.560228,0.0,-1.7921548,40.5085,-1.7783409,167.34552,-2.041492,274.94345,-1.9722636,74.55228,-1.8004342,215.2844,-0.38829806,152.89342,-18.643002
77.50422,-2.787188,44.650314,-2.7504985,220.26765,13.424255,0.0,-2.824144,17.424671,-2.889673,140.20883,-3.1112196,258.8929,-3.0654697,51.603294,-2.8280392,190.65916,-0.30120894,127.79882,-20.820307
49.327976,-3.4420846,9.995486,-3.3383021,189.15846,12.655304,0.0,-3.3082874,-15.348547,-3.4824183,101.81705,-3.570328,236.0164,-3.6005766,24.879889,-3.2784562,155.10612,-0.16701393,89.926895,-20.90392
26.373276,-3.222613,-27.89555,-2.9905188,157.20412,12.665603,0.0,-2.9344492,-48.91058,-3.1831348,62.501984,-3.1037743,212.24588,-3.242769,1.971433,-2.8432195,117.855354,-0.048573837,50.375412,-18.910524
13.67182,-2.1653838,-58.059044,-1.7946736,132.69101,13.490735,0.0,-1.8054684,-73.72704,-2.057474,32.87092,-1.8484151,193.28047,-2.090696,-10.739633,-1.6602496,88.88097,0.017147386,20.700253,-15.322841
12.549864,-0.7114019,-72.422295,-0.25573692,120.473335,14.770871,0.0,-0.3811812,-83.78717,-0.58249694,19.597155,-0.32271248,182.27567,-0.6332898,-10.922735,-0.24098755,75.05017,0.023807332,8.252651,-10.896953
19.70038,0.55324304,-69.74219,0.99765474,119.63964,15.966216,0.0,0.7839851,-80.07288,0.63492477,22.150126,0.87131655,178.1917,0.5312792,-2.118373,0.83286726,76.645195,-0.01652296,12.436812,-6.4131
28.220707,1.2412766,-56.730858,1.5823234,123.66568,16.678902,0.0,1.3562154,-70.71605,1.2218581,32.799156,1.3942147,175.99936,1.0468392,7.232273,1.2548827,86.641464,-0.08345591,24.54311,-2.4632905
30.75266,1.3738762,-44.876846,1.5663062,123.69621,16.875996,0.0,1.396146,-66.839615,1.2447845,40.708347,1.3457525,169.22835,0.9945694,7.8676705,1.1584411,94.029976,-0.1496669,32.189007,0.665821
23.432743,1.3209498,-44.20946,1.3780671,113.64616,16.867294,0.0,1.2836541,-76.03303,1.1208733,38.257675,1.1631587,153.84438,0.80579305,-5.067416,0.99611574,89.8684,-0.18496883,26.319803,2.982171
8.379509,1.5178792,-57.629692,1.4887854,94.21726,17.055935,0.0,1.4462135,-97.48261,1.3047612,25.80978,1.3123415,131.19016,0.95568603,-28.883427,1.2210013,72.52671,-0.17171352,6.535495,4.694102
-7.0812798,2.153758,-79.38355,2.0881255,73.1535,17.63317,0.0,2.0677145,-122.074326,1.9711502,11.738758,1.9749159,107.91762,1.6437933,-54.49458,1.9823519,48.72933,-0.12145847,-18.724285,6.0667458
-14.332328,3.0362751,-98.5912,2.963835,61.29423,18.422995,0.0,2.9606366,-137.54971,2.8993852,7.545862,2.925649,92.65483,2.6627026,-71.282776,3.0246005,29.68184,-0.07327503,-37.198296,7.296057
-8.263883,3.7046225,-105.420784,3.6388981,66.74798,18.972992,0.0,3.6685932,-135.37396,3.609807,21.183187,3.6615975,91.36691,3.5169535,-72.64788,3.8328204,24.861258,-0.06697292,-39.61629,8.437468
9.961907,3.700858,-96.03525,3.6559918,90.68021,18.826952,0.0,3.7256417,-115.01938,3.6432292,52.75243,3.690776,104.25695,3.7004073,-58.95065,3.9188607,37.394188,-0.110149585,-24.060593,9.403624
33.644478,2.8293433,-73.78411,2.8316295,126.89151,17.806711,0.0,2.9179,-83.52003,2.8125086,94.7796,2.809065,125.8832,2.96671,-36.58497,3.0801075,63.379005,-0.16806303,4.117638,10.024145
53.789097,1.2728753,-46.943523,1.3570656,164.69302,16.142529,0.0,1.4135917,-51.54741,1.3076726,135.98514,1.2242548,147.90536,1.4627733,-14.5473,1.5084497,94.4984,-0.1879838,35.559376,10.136371
62.494778,-0.48114112,-25.235233,-0.2880105,192.811,14.378686,0.0,-0.3013001,-29.097061,-0.38347846,165.59354,-0.5307328,162.38904,-0.3292469,-1.0138347,-0.2926945,121.39274,-0.14132139,60.492294,9.679237
54.858913,-1.8601534,-17.09524,-1.5572442,202.40274,13.10591,0.0,-1.6481311,-22.981474,-1.6959488,176.00882,-1.8487155,163.94485,-1.8087,-1.4565299,-1.7358793,135.87338,-0.04867343,70.86023,8.752547
29.680626,-2.459524,-27.95053,-2.081995,188.97054,12.6732645,0.0,-2.2230313,-35.97,-2.2401817,163.9613,-2.329018,150.54738,-2.5241303,-17.913652,-2.4061108,132.15738,0.033650395,61.437065,7.61924
-9.806175,-2.1953979,-58.600216,-1.8082714,153.98495,13.050332,0.0,-1.956576,-66.10955,-1.9508036,131.52101,-1.9311258,123.97601,-2.3500748,-48.1615,-2.2101154,108.50143,0.056203816,31.41104,6.6394696
-55.0207,-1.2815208,-103.461136,-0.9582759,106.20494,13.913565,0.0,-1.0821315,-105.75068,-1.0549285,87.34755,-0.924175,90.34941,-1.4834107,-84.59933,-1.3474225,69.52411,0.013454382,-13.360502,6.1584616
-92.643295,-0.074757345,-150.17487,0.12892605,61.019726,14.868931,0.0,0.0352851,-141.83855,0.08941428,46.41644,0.2995598,59.8099,-0.29339194,-114.509544,-0.15759674,27.240416,-0.055615857,-59.520275,6.3864064
-108.61778,1.0780715,-182.69327,1.1408489,35.93366,15.630187,0.0,1.0630921,-159.54274,1.1461588,25.923176,1.3904282,43.852093,0.8438848,-123.71545,1.0221511,-1.9058262,-0.10224369,-89.53834,7.3159757
