time stamp,C3,CZ,C4,FCZ,FC3,CP4,CPZ,CP3,FC4
0.0,-10.798873,-5.789696,-4.718109,-2.243221,-2.9177022,-12.00854,-13.21699,-20.464685,0.29015788
0.0019992644083686173,-10.2802725,-5.733369,-4.8235116,-2.1319256,-2.8238661,-13.385418,-13.368324,-20.288216,0.7126166
0.003998528816737235,-9.544192,-5.5951757,-5.0175514,-1.9471498,-2.7659805,-14.673018,-13.317814,-19.659773,0.82043856
0.005997793166898191,-8.642336,-5.334345,-5.3205614,-1.6878583,-2.6979048,-15.714957,-13.012235,-18.603622,0.4996662
0.007997057575266808,-7.611278,-4.8983564,-5.698629,-1.3414416,-2.5559645,-16.362995,-12.396737,-17.145655,-0.2600658
0.009996321983635426,-6.477549,-4.247126,-6.0705595,-0.8965296,-2.2821212,-16.507467,-11.436254,-15.321511,-1.3474854
0.011995586392004043,-5.257506,-3.369989,-6.3304787,-0.3506685,-1.8399063,-16.096884,-10.129159,-13.17478,-2.5540104
0.013994850742165,-3.9529614,-2.2918231,-6.3773274,0.28627226,-1.2187768,-15.138655,-8.508152,-10.751303,-3.627005
0.015994115150533617,-2.549845,-1.0676178,-6.148565,0.9915633,-0.43121108,-13.688534,-6.630313,-8.088388,-4.3528237
0.017993379558902234,-1.0213495,0.2291466,-5.6337337,1.7331023,0.4931504,-11.829863,-4.5613823,-5.210321,-4.622606
0.01999264396727085,0.6593297,1.5225784,-4.875865,2.4723039,1.5144535,-9.651424,-2.3619323,-2.1325946,-4.4634576
0.021991908317431808,2.5007765,2.7499013,-3.9474995,3.1679552,2.5829906,-7.2272997,-0.07577035,1.125619,-4.0164094
0.023991172725800425,4.473186,3.8699267,-2.916108,3.7786636,3.6392531,-4.6094627,2.269727,4.525174,-3.4718356
0.025990437134169042,6.5004745,4.866154,-1.8182195,4.2657895,4.6204815,-1.8307657,4.6545653,7.98979,-2.993085
0.02798970154253766,8.464448,5.7444453,-0.6466362,4.600046,5.466921,1.0823095,7.054335,11.399828,-2.648598
0.029988965892698616,10.230816,6.525606,0.6458579,4.76867,6.136224,4.0922656,9.427689,14.604905,-2.3824058
0.03198823030106723,11.669437,7.230872,2.1104803,4.7778983,6.6109004,7.1321225,11.706665,17.43991,-2.053049
0.03398749470943585,12.686154,7.870075,3.7659953,4.6539373,6.90193,10.095066,13.795788,19.752974,-1.490771
0.03598675911780447,13.230583,8.427405,5.564565,4.434131,7.034614,12.835484,15.5777855,21.427706,-0.58141714
0.037986023467965424,13.2985525,8.856056,7.374809,4.1556106,7.0326953,15.186107,16.930676,22.400188,0.66262764
0.03998528787633404,12.919077,9.0815525,8.993548,3.8421226,6.8975854,16.98419,17.746565,22.663803,2.084842
0.04198455228470266,12.136966,9.017006,10.18881,3.4955847,6.5991955,18.106396,17.953564,22.262184,3.421519
0.043983816693071276,11.004847,8.588167,10.761937,3.099292,6.0834904,18.5002,17.536182,21.281668,4.381513
0.04598308104323223,9.581377,7.7600527,10.603501,2.6266904,5.295283,18.201204,16.544157,19.837984,4.7405696
0.04798234545160085,7.9404736,6.5587153,9.73355,2.0593007,4.2118874,17.332052,15.091854,18.065327,4.4225583
0.04998160985996947,6.175976,5.077348,8.316776,1.4011918,2.863833,16.080706,13.34206,16.104528,3.5357969
0.051980874268338084,4.4003158,3.461488,6.618603,0.68330073,1.3461968,14.65832,11.4750395,14.086802,2.3424282
0.05398013861849904,2.7357368,1.879139,4.950425,-0.040684734,-0.19727917,13.256667,9.655933,12.120895,1.1884196
0.05597940302686766,1.2882528,0.48257926,3.5978491,-0.71119606,-1.6105801,12.012029,8.003922,10.277695,0.4072506
0.057978667435236275,0.1193592,-0.6306924,2.745545,-1.2852964,-2.7698512,10.979464,6.5680966,8.576677,0.20691311
0.05997793184360489,-0.77067053,-1.4358541,2.445786,-1.7517432,-3.62126,10.135191,5.326048,6.984676,0.619461
0.06197719619376585,-1.4466269,-1.9810311,2.6140916,-2.135002,-4.192033,9.395076,4.197287,5.4232535,1.4954991
0.06397646060213447,-2.020592,-2.3645122,3.0701423,-2.484026,-4.5787034,8.647568,3.0709455,3.7872186,2.5564988
0.06597572501050308,-2.6272326,-2.7019696,3.5867944,-2.8532712,-4.9186006,7.7861576,1.8386666,1.968317,3.4602873
0.0679749894188717,-3.3811913,-3.089206,3.9537027,-3.2758694,-5.334563,6.7350526,0.42524028,-0.11740046,3.9202378
0.06997425376903266,-4.350661,-3.5756443,4.0291977,-3.7467978,-5.9012465,5.4672394,-1.1912202,-2.5091605,3.776475
0.07197351817740127,-5.543122,-4.1581635,3.7556674,-4.21966,-6.622927,4.001147,-2.9769201,-5.191958,3.0380766
0.07397278258576989,-6.9031305,-4.788942,3.1546206,-4.61818,-7.430879,2.3917081,-4.8508153,-8.093608,1.8706987
0.07597204699413851,-8.335809,-5.4015803,2.297053,-4.8624043,-8.212432,0.7081462,-6.708456,-11.099882,0.54846203
0.07797131134429947,-9.728871,-5.9344025,1.2763909,-4.893875,-8.844717,-0.9800972,-8.44441,-14.068195,-0.62043744
0.07997057575266808,-10.975031,-6.352818,0.17433438,-4.6978545,-9.227265,-2.623577,-9.975949,-16.846382,-1.3817693
0.0819698401610367,-11.996428,-6.6617265,-0.9559279,-4.314703,-9.316612,-4.2041125,-11.261631,-19.294891,-1.6019924
0.08396910456940532,-12.750367,-6.901246,-2.0959141,-3.8317952,-9.128328,-5.738866,-12.306996,-21.30103,-1.3049752
0.08596836891956627,-13.222653,-7.1324697,-3.2541258,-3.3630652,-8.725872,-7.275561,-13.157372,-22.784384,-0.67235553
0.08796763332793489,-13.419905,-7.4163327,-4.4531107,-3.0219274,-8.199424,-8.877455,-13.88279,-23.701815,0.007615494
0.08996689773630351,-13.355861,-7.792332,-5.716067,-2.892729,-7.637117,-10.604596,-14.553299,-24.039692,0.40976298
0.09196616214467213,-13.0410595,-8.263661,-7.0535026,-3.011658,-7.10213,-12.492263,-15.216544,-23.807446,0.2580132
0.09396542649483308,-12.470601,-8.785721,-8.449242,-3.3533986,-6.612176,-14.526727,-15.872196,-23.022802,-0.59129465
0.0959646909032017,-11.6312895,-9.270234,-9.852119,-3.8360503,-6.148224,-16.634127,-16.46242,-21.704372,-2.0981152
0.09796395531157032,-10.505022,-9.596783,-11.171395,-4.337216,-5.662613,-18.680355,-16.87355,-19.866022,-4.038037
0.09996321971993893,-9.082799,-9.634543,-12.283804,-4.7179995,-5.1027803,-20.484617,-16.955614,-17.522701,-6.047975
0.10196248407009989,-7.374773,-9.26796,-13.049273,-4.8514376,-4.4292254,-21.844389,-16.549965,-14.697274,-7.716902
0.10396174847846851,-5.4265113,-8.427018,-13.335216,-4.6518965,-3.6354623,-22.572493,-15.530121,-11.440457,-8.6836815
0.10596101288683712,-3.3193147,-7.1047463,-13.04151,-4.0932474,-2.7497227,-22.523758,-13.831026,-7.8377213,-8.733857
0.10796027729520574,-1.1620474,-5.36969,-12.130164,-3.2175102,-1.8269997,-21.62396,-11.472924,-4.0150075,-7.8527246
0.1099595416453667,0.9214115,-3.35826,-10.630534,-2.1273339,-0.9342269,-19.876083,-8.562548,-0.1313276,-6.213892
0.11195880605373532,2.8174078,-1.2528648,-8.6393585,-0.9648412,-0.12919118,-17.356863,-5.2770348,3.6421793,-4.1268225
0.11395807046210393,4.4421372,0.75119954,-6.3006024,0.11684133,0.55327123,-14.20083,-1.8320115,7.1469207,-1.9471483
0.11595733487047255,5.757782,2.4834979,-3.774561,0.98633915,1.1098533,-10.576816,1.5561323,10.260975,0.021123951
0.1179565992206335,6.773498,3.829402,-1.2141008,1.5570977,1.5584793,-6.665664,4.705792,12.914258,1.5824988
0.11995586362900212,7.5375576,4.7476683,1.2529945,1.8008384,1.9305162,-2.6437142,7.4909997,15.088838,2.6724918
0.12195512803737074,8.117612,5.269915,3.532405,1.7461365,2.251259,1.329714,9.849349,16.807827,3.3350875
0.12395439244573936,8.574088,5.4809117,5.5581503,1.4626598,2.5256577,5.115099,11.769787,18.110764,3.672273
0.12595365685410798,8.945622,5.488634,7.2751427,1.0392244,2.7380347,8.591595,13.273259,19.034546,3.7871454
0.12795292120426893,9.23831,5.392754,8.641759,0.56136703,2.8539777,11.660996,14.391447,19.59963,3.7488174
0.12995218561263755,9.432469,5.2602086,9.62156,0.09512479,2.838045,14.248073,15.1522255,19.811018,3.581373
0.13195145002100617,9.492051,5.112455,10.188262,-0.3235623,2.6646643,16.302542,15.570975,19.666075,3.2768886
0.13395071442937478,9.388854,4.9348054,10.341895,-0.68363595,2.3368561,17.81052,15.660269,19.176035,2.8209922
0.13594997877953574,9.114808,4.6929154,10.116232,-0.990083,1.8901477,18.79375,15.440399,18.380192,2.2265885
0.13794924318790436,8.685094,4.356418,9.58475,-1.2536043,1.384186,19.310278,14.950468,17.349136,1.5367793
0.13994850759627298,8.137928,3.9185278,8.850652,-1.4805433,0.89358336,19.44182,14.251005,16.174599,0.82577944
0.1419477720046416,7.520486,3.4040337,8.03343,-1.6677974,0.4889044,19.277283,13.417305,14.94855,0.19482785
0.14394703635480255,6.866706,2.8612716,7.2420654,-1.8079203,0.21540847,18.892014,12.519179,13.7326355,-0.26021868
0.14594630076317117,6.1889863,2.342446,6.5509257,-1.8980521,0.08230095,18.325588,11.596751,12.535973,-0.4700871
0.14794556517153978,5.4686947,1.8797606,5.9796634,-1.9478625,0.055823084,17.57108,10.643667,11.307085,-0.4022184
0.1499448295799084,4.6622863,1.4687097,5.4954457,-1.9843894,0.06738129,16.5802,9.6026325,9.943565,-0.0694408
0.15194409393006936,3.7143908,1.061593,5.02271,-2.051609,0.028540313,15.281048,8.378337,8.319441,0.46454397
0.15394335833843797,2.5758924,0.5771438,4.462703,-2.201754,-0.1469692,13.605774,6.8667645,6.323427,1.0853484
0.1559426227468066,1.2186409,-0.073755324,3.7317114,-2.481037,-0.52181554,11.525542,4.992955,3.8926437,1.6474007
0.1579418871551752,-0.34623998,-0.9527314,2.7915955,-2.9095368,-1.1114633,9.078704,2.7489018,1.0440594,2.003343
0.15994115150533617,-2.066631,-2.0680847,1.6693714,-3.470742,-1.8786894,6.381058,0.21288863,-2.1210687,2.0330732
0.16194041591370478,-3.8531294,-3.3591545,0.4587717,-4.1078815,-2.7378633,3.6145937,-2.453683,-5.4309807,1.6833913
0.1639396803220734,-5.5899754,-4.7001395,-0.6950366,-4.72998,-3.5706925,0.99801934,-5.0322194,-8.671633,0.99412376
0.16593894473044202,-7.153199,-5.929241,-1.6377317,-5.2336216,-4.2534013,-1.2618086,-7.2954707,-11.628209,0.088170715
0.16793820908060297,-8.433329,-6.886523,-2.2446818,-5.526189,-4.68747,-3.0155048,-9.058799,-14.124107,-0.84451437
0.1699374734889716,-9.354779,-7.456065,-2.4614327,-5.5506964,-4.8218265,-4.2094307,-10.226495,-16.052929,-1.5951121
0.1719367378973402,-9.897435,-7.6030035,-2.3285673,-5.3065405,-4.6710258,-4.903305,-10.820348,-17.39697,-1.9965035
0.17393600230570883,-10.09946,-7.3821077,-1.9768516,-4.8496866,-4.308459,-5.2570033,-10.972661,-18.220388,-1.9674838
0.17593526665586978,-10.057607,-6.9329157,-1.6075498,-4.2857094,-3.8510935,-5.5013623,-10.901782,-18.65491,-1.5372096
0.1779345310642384,-9.904607,-6.4421473,-1.4396312,-3.7433665,-3.427209,-5.88631,-10.859043,-18.863487,-0.8304788
0.17993379547260702,-9.781352,-6.100237,-1.6638362,-3.3460832,-3.1477194,-6.6308055,-11.072076,-19.002186,-0.036929708
0.18193305988097563,-9.802143,-6.053106,-2.4032276,-3.183205,-3.0787406,-7.882224,-11.692823,-19.182524,0.62822556
0.1839323242311366,-10.015733,-6.358731,-3.6729503,-3.282289,-3.2179766,-9.682967,-12.758388,-19.439322,1.0030037
0.1859315886395052,-10.386335,-6.970305,-5.383347,-3.6024096,-3.4951859,-11.96726,-14.180274,-19.718124,0.99491876
0.18793085304787382,-10.790555,-7.7416544,-7.3525515,-4.0387216,-3.7848966,-14.570158,-15.758013,-19.876953,0.6090665
0.18993011745624244,-11.032834,-8.452535,-9.336901,-4.4405837,-3.9261272,-17.250837,-17.211481,-19.706686,-0.057496183
0.1919293818064034,-10.884323,-8.855881,-11.075724,-4.641923,-3.7556298,-19.723854,-18.22991,-18.966923,-0.8427676
0.19392864621477202,-10.130393,-8.728171,-12.327509,-4.492857,-3.139106,-21.69439,-18.52332,-17.430527,-1.5463525
0.19592791062314063,-8.625407,-7.9197936,-12.909602,-3.8931608,-2.0021102,-22.897224,-17.874983,-14.934505,-1.9756005
0.19792717503150925,-6.3277454,-6.3860216,-12.721493,-2.811646,-0.346453,-23.130571,-16.175934,-11.417217,-1.9816755
0.1999264393816702,-3.32313,-4.1997538,-11.756852,-1.2968758,1.7406884,-22.285788,-13.446718,-6.948481,-1.4910125
0.20192570379003882,0.18685196,-1.5366653,-10.09785,0.53316355,4.0997305,-20.361559,-9.83352,-1.7320831,-0.52328885
0.20392496819840744,3.9080582,1.3543403,-7.9066596,2.5080743,6.518243,-17.474323,-5.5907583,3.907573,0.80383116
0.20592423260677606,7.5015864,4.197694,-5.3967175,4.4365067,8.763146,-13.84131,-1.0437224,9.564919,2.3007832
0.20792349695693702,10.646185,6.739568,-2.8059244,6.140006,10.622094,-9.749698,3.4610562,14.811968,3.7214282
0.20992276136530563,13.082612,8.789119,-0.35659686,7.4839396,11.934346,-5.5138187,7.6036158,19.257706,4.84097
0.21192202577367425,14.656928,10.240953,1.7683043,8.3946085,12.616052,-1.4304512,11.130482,22.606808,5.4880567
0.21392129018204287,15.337018,11.081609,3.4526696,8.867635,12.670445,2.260783,13.881024,24.698853,5.592366
0.21592055453220382,15.202873,11.375012,4.6550455,8.959725,12.177852,5.4012585,15.793914,25.523802,5.2061057
0.21791981894057244,14.416353,11.232947,5.4087095,8.767388,11.272761,7.916106,16.892427,25.203592,4.4916496
0.21991908334894106,13.186214,10.784361,5.802728,8.403176,10.117955,9.803226,17.261623,23.961155,3.6849608
0.22191834775730968,11.722689,10.144663,5.955471,7.970343,8.872624,11.110714,17.018543,22.069412,3.0368114
0.22391761210747063,10.203427,9.39674,5.9879746,7.5425935,7.6701007,11.916079,16.288774,19.803179,2.7505941
0.22591687651583925,8.755446,8.584878,5.9925704,7.15505,6.6052437,12.308809,15.190879,17.402176,2.924345
0.22791614092420787,7.448786,7.7201247,6.0190835,6.803309,5.728237,12.382684,13.832314,15.047957,3.5250835
0.22991540533257648,6.3044753,6.7946577,6.0693197,6.4530573,5.0489206,12.2332535,12.310198,12.854588,4.391309
0.23191466968273744,5.306507,5.7963424,6.105505,6.0537286,4.542836,11.956985,10.71401,10.87271,5.2695813
0.23391393409110606,4.4100156,4.7186213,6.065218,5.5511274,4.156279,11.64412,9.1225605,9.093858,5.8700504
0.23591319849947467,3.5547366,3.56568,5.882964,4.9007797,3.815434,11.366817,7.596241,7.461037,5.94328
0.2379124629078433,2.6701176,2.3525434,5.5143075,4.0774374,3.435225,11.166329,6.168307,5.880313,5.3440833
0.2399117273162119,1.683057,1.0961467,4.93921,3.0767634,2.9300933,11.034048,4.8341007,4.233279,4.0618668
0.24191099166637287,0.53419554,-0.18325165,4.175341,1.9207225,2.234911,10.910801,3.555482,2.402575,2.2378614
0.24391025607474148,-0.8067935,-1.4666191,3.2674658,0.6544651,1.320993,10.690536,2.268797,0.2979218,0.124016166
0.2459095204831101,-2.324733,-2.7321649,2.2752273,-0.6561401,0.20920424,10.239128,0.9046108,-2.115359,-1.9776205
0.24790878489147872,-3.949949,-3.9468465,1.2640477,-1.9255689,-1.0243462,9.426614,-0.58605886,-4.7954054,-3.7808757
0.24990804924163967,-5.5643535,-5.064821,0.2898345,-3.0574064,-2.2587101,8.154194,-2.2158139,-7.6236434,-5.0794873
0.2519073136500083,-7.0212884,-6.0253434,-0.6075331,-3.9529135,-3.3507357,6.3828306,-3.9495916,-10.42013,-5.7817016
0.2539065780583769,-8.181786,-6.7610493,-1.4126813,-4.5243278,-4.1696854,4.1423864,-5.70976,-12.980727,-5.921577
0.2559058424667455,-8.950053,-7.20955,-2.1291835,-4.7079663,-4.626012,1.5334147,-7.390896,-15.119432,-5.620926
0.2579051068169065,-9.291224,-7.325764,-2.7731965,-4.4732356,-4.6853194,-1.287784,-8.878778,-16.703758,-5.0412683
0.2599043712252751,-9.2495575,-7.0998993,-3.372609,-3.8366244,-4.3847575,-4.13941,-10.077641,-17.684307,-4.340074
0.2619036356336437,-8.923435,-6.560571,-3.9562464,-2.8577123,-3.8094704,-6.8420377,-10.924306,-18.088614,-3.6307886
0.26390290004201233,-8.439696,-5.776239,-4.5454984,-1.6375586,-3.0747077,-9.246753,-11.399709,-18.008175,-2.9724429
0.2659021643921733,-7.916973,-4.8448377,-5.152571,-0.3043381,-2.3001783,-11.254334,-11.528695,-17.566502,-2.376078
0.2679014288005419,-7.4383163,-3.8788366,-5.7759604,1.0013156,-1.5914664,-12.823127,-11.374047,-16.88871,-1.8280894
0.2699006932089105,-7.036271,-2.98638,-6.3975563,2.1444943,-1.0269624,-13.961578,-11.022271,-16.07591,-1.3251753
0.27189995761727914,-6.69418,-2.2524724,-6.9835334,3.0145116,-0.65347886,-14.711654,-10.565336,-15.190744,-0.8797719
0.2738992219674401,-6.364617,-1.7266349,-7.4833407,3.5382428,-0.48999453,-15.126006,-10.083994,-14.257485,-0.51992106
0.2758984863758087,-5.985513,-1.4166304,-7.8347673,3.689208,-0.522189,-15.249542,-9.63204,-13.269741,-0.2721943
0.27789775078417733,-5.505013,-1.2931486,-7.9752364,3.4878588,-0.70686257,-15.114552,-9.231876,-12.206846,-0.14069033
0.27989701519254595,-4.8887706,-1.2980728,-7.8503838,2.9998543,-0.9692517,-14.737928,-8.871365,-11.045297,-0.08804725
0.2818962795427069,-4.1262436,-1.3599181,-7.4304757,2.3226688,-1.2112552,-14.135069,-8.514087,-9.773513,-0.042407308
0.2838955439510755,-3.2358155,-1.4109128,-6.7223053,1.5711008,-1.3298895,-13.334356,-8.113638,-8.401417,0.09173035
0.28589480835944414,-2.2571251,-1.4007703,-5.7787313,0.8577849,-1.2398224,-12.389002,-7.6302576,-6.961066,0.38794193
0.28789407276781276,-1.2465394,-1.30314,-4.698383,0.27609357,-0.90160555,-11.376551,-7.0407705,-5.4995275,0.8568616
0.2898933371179737,-0.26771966,-1.1159889,-3.6074271,-0.113923304,-0.34208465,-10.383603,-6.341942,-4.0655217,1.4356203
0.29189260152634233,0.616888,-0.8587291,-2.6461236,-0.29566926,0.34439212,-9.49033,-5.5490613,-2.6957417,1.9730128
0.29389186593471095,1.3652469,-0.5588742,-1.9368908,-0.29297248,1.0171599,-8.743387,-4.6816773,-1.3925495,2.2732873
0.29589113034307957,1.9610984,-0.24450995,-1.552962,-0.1626848,1.5235118,-8.140067,-3.7533567,-0.12165657,2.1552043
0.2978903946932405,2.4251134,0.06441756,-1.5059161,0.019952971,1.7489455,-7.6265063,-2.764505,1.1857693,1.5114435
0.29988965910160914,2.8086553,0.3602697,-1.7324493,0.18054307,1.6522915,-7.106259,-1.7002381,2.615492,0.36537963
0.30188892350997776,3.1826086,0.64924985,-2.1033237,0.26399317,1.2835519,-6.460753,-0.5367625,4.243504,-1.1124722
0.3038881879183464,3.6201487,0.95166355,-2.4407954,0.25073105,0.77626956,-5.5715938,0.7503027,6.1096325,-2.628741
0.30588745226850733,4.1756067,1.2992356,-2.5482764,0.16193065,0.31151628,-4.3401933,2.1761782,8.19932,-3.8362231
0.30788671667687595,4.8730583,1.7309166,-2.2503946,0.0553806,0.06965109,-2.7037344,3.7387197,10.436914,-4.4226418
0.30988598108524457,5.700727,2.287982,-1.4193964,0.013937413,0.18100235,-0.6374954,5.418013,12.697926,-4.191887
0.3118852454936132,6.6102057,2.9992197,-0.014618306,0.11818328,0.68918735,1.8356477,7.171227,14.825696,-3.1297753
0.31388450984377414,7.523882,3.8683534,1.908048,0.42166302,1.5381256,4.6469183,8.933972,16.656944,-1.407584
0.31588377425214276,8.342233,4.8571825,4.1880436,0.9266988,2.582579,7.676964,10.618295,18.041405,0.6576114
0.3178830386605114,8.95633,5.8790236,6.5874963,1.573231,3.6247983,10.762045,12.115696,18.858011,2.6833105
0.31988230306888,9.25532,6.8045406,8.830725,2.2456293,4.4569497,13.707848,13.306292,19.026003,4.317579
0.32188156741904095,9.148719,7.482645,10.660077,2.7963414,4.911877,16.313107,14.075214,18.512665,5.3246937
0.32388083182740957,8.586455,7.7764616,11.896245,3.0856776,4.904833,18.405762,14.33624,17.34084,5.6380215
0.3258800962357782,7.578604,7.5996895,12.476288,3.0197904,4.449313,19.87501,14.054554,15.594008,5.349302
0.3278793606441468,6.2069135,6.944216,12.460066,2.5805361,3.6545477,20.688074,13.259412,13.409748,4.6676564
0.32987862499430776,4.618066,5.888293,12.01285,1.8331664,2.6943393,20.892906,12.04279,10.963658,3.851656
0.3318778894026764,2.994009,4.573725,11.334542,0.90708786,1.7602291,20.583046,10.532638,8.437226,3.118617
0.333877153811045,1.508899,3.168595,10.595611,-0.040816262,1.0080923,19.856565,8.856877,5.97824,2.5981097
0.3358764182194136,0.28501785,1.8201038,9.875797,-0.8700531,0.5200589,18.771389,7.107123,3.6707091,2.3059263
0.33787568256957456,-0.6439801,0.6180144,9.142772,-1.494961,0.2834038,17.31984,5.3137283,1.5140969,2.1653645
0.3398749469779432,-1.3313916,-0.41777346,8.266228,-1.8990678,0.20628248,15.4340105,3.4489822,-0.5614771,2.0451787
0.3418742113863118,-1.8921412,-1.3240544,7.07959,-2.127255,0.15872157,13.021123,1.4540851,-2.660823,1.8153197
0.3438734757946804,-2.4530065,-2.1601362,5.4524345,-2.2577243,0.019862887,10.020678,-0.7157273,-4.86865,1.3807949
0.3458727401448414,-3.1036096,-2.9690068,3.356341,-2.3638072,-0.280941,6.457458,-3.0474153,-7.2010875,0.70939785
0.34787200455321,-3.8568518,-3.7499535,0.89002794,-2.485859,-0.7364135,2.4685845,-5.447183,-9.578899,-0.17969052
0.3498712689615786,-4.646526,-4.453429,-1.7341704,-2.6180446,-1.2683085,-1.7052194,-7.7491684,-11.837919,-1.2324922
0.3518705333699472,-5.3532014,-4.9983325,-4.244437,-2.7158992,-1.7581341,-5.7614365,-9.751372,-13.766579,-2.3821416
0.3538697977201082,-5.8463745,-5.3036814,-6.3832064,-2.7182791,-2.0849721,-9.400827,-11.270454,-15.166021,-3.5609713
0.3558690621284768,-6.031961,-5.3219237,-7.974855,-2.5759118,-2.163925,-12.392078,-12.194844,-15.907622,-4.7082224
0.3578683265368454,-5.8793936,-5.057832,-8.960236,-2.2698724,-1.9654831,-14.611942,-12.513408,-15.966003,-5.773149
0.35986759094521403,-5.4250345,-4.570519,-9.401749,-1.8213625,-1.5182048,-16.057966,-12.31555,-15.421521,-6.7135806
0.36186685535358265,-4.7507486,-3.9533556,-9.44652,-1.28125,-0.89171076,-16.824259,-11.759136,-14.429035,-7.489327
0.3638661197037436,-3.9602647,-3.3109825,-9.273343,-0.7177549,-0.18395042,-17.062214,-11.02483,-13.177108,-8.069009
0.3658653841121122,-3.1499562,-2.7329748,-9.046844,-0.19649206,0.50144565,-16.938332,-10.2694025,-11.840119,-8.438582
0.36786464852048084,-2.399836,-2.2784195,-8.876038,0.23136134,1.058926,-16.598782,-9.594134,-10.548735,-8.591101
0.36986391292884946,-1.7719655,-1.9713712,-8.798596,0.5358449,1.3916775,-16.15173,-9.03653,-9.381936,-8.523106
0.3718631772790104,-1.3172015,-1.8045958,-8.79026,0.70643824,1.4183928,-15.662856,-8.578907,-8.3720045,-8.231172
0.37386244168737903,-1.0771427,-1.7488166,-8.78157,0.7479548,1.0869265,-15.161178,-8.171284,-7.51956,-7.703913
0.37586170609574765,-1.076655,-1.7618899,-8.686474,0.6751641,0.39198872,-14.646969,-7.753485,-6.805578,-6.9336357
0.37786097050411627,-1.3116103,-1.7970207,-8.427332,0.5084961,-0.611142,-14.097934,-7.2714806,-6.1953473,-5.932369
0.3798602348542772,-1.7351137,-1.8120068,-7.9573255,0.2680719,-1.8063167,-13.477938,-6.6869392,-5.6375356,-4.7539268
0.38185949926264584,-2.254769,-1.7754441,-7.268918,-0.027128562,-3.0330703,-12.741449,-5.9760365,-5.0607343,-3.5037546
0.38385876367101446,-2.7482135,-1.6779604,-6.400178,-0.3663565,-4.12159,-11.846589,-5.131841,-4.3793983,-2.3375192
0.3858580280793831,-3.0922916,-1.53654,-5.426862,-0.75037503,-4.9360595,-10.767502,-4.163382,-3.5072355,-1.4305847
0.38785729242954403,-3.1945896,-1.393154,-4.4401026,-1.1910452,-5.408575,-9.497804,-3.0941396,-2.3776262,-0.92933476
0.38985655683791265,-3.018704,-1.3036207,-3.5297885,-1.7069118,-5.5536604,-8.053634,-1.9605579,-0.96235365,-0.91161495
0.39185582124628127,-2.5920405,-1.3180608,-2.7541351,-2.3120127,-5.454881,-6.461484,-0.8049951,0.7158443,-1.353795
0.3938550856546499,-1.9879516,-1.4584259,-2.1285467,-3.0030046,-5.23163,-4.7447634,0.33564937,2.5894058,-2.1311996
0.39585435000481084,-1.2950214,-1.7005551,-1.6129509,-3.7457643,-4.9893327,-2.9073856,1.4422299,4.5600386,-3.0385299
0.39785361441317946,-0.58132994,-1.9681987,-1.1221074,-4.4706635,-4.781068,-0.926655,2.5227492,6.5264525,-3.83643
0.3998528788215481,0.124662906,-2.1487014,-0.5519012,-5.080173,-4.5916123,1.2355072,3.610049,8.403266,-4.3174524
0.4018521432299167,0.8426167,-2.116918,0.19749472,-5.463046,-4.3451486,3.614759,4.7516165,10.135773,-4.32867
0.40385140758007765,1.6148716,-1.7742723,1.1904923,-5.5230107,-3.9438932,6.2120843,5.9852695,11.69296,-3.80578
0.40585067198844627,2.473783,-1.0810565,2.4329307,-5.2034793,-3.3096771,8.96692,7.3132796,13.050646,-2.7746208
0.4078499363968149,3.4128854,-0.07720073,3.861348,-4.5084815,-2.4249883,11.745888,8.684226,14.172467,-1.3372045
0.4098492008051835,4.361805,1.1182754,5.3568077,-3.510699,-1.3546656,14.352735,9.986663,14.992008,0.35166606
0.41184846515534446,5.1918406,2.3266954,6.7624664,-2.3429341,-0.23759378,16.558086,11.062172,15.409925,2.1097486
0.4138477295637131,5.7401724,3.3450315,7.9124174,-1.1765174,0.7425052,18.143318,11.7340975,15.309823,3.7435093
0.4158469939720817,5.853153,3.9864867,8.6615,-0.19086534,1.4038918,18.945591,11.846934,14.5887165,5.059009
0.4178462583804503,5.4263973,4.122414,8.922735,0.4644586,1.6089059,18.899475,11.308318,13.19355,5.905987
0.41984552273061126,4.4396973,3.707727,8.6803,0.698069,1.301667,18.04975,10.116343,11.1532345,6.186877
0.4218447871389799,2.9786935,2.797094,8.000993,0.50070107,0.5280289,16.550045,8.37468,8.599019,5.890462
0.4238440515473485,1.2181604,1.5343804,7.018093,-0.052859522,-0.57642263,14.631365,6.279096,5.755016,5.091211
0.4258433159557171,-0.5986847,0.13284424,5.9123907,-0.8126338,-1.80756,12.562131,4.0892625,2.9130514,3.959938
0.4278425803058781,-2.204811,-1.1638976,4.8678355,-1.5818994,-2.9307048,10.594959,2.0812404,0.38205168,2.7253754
0.4298418447142467,-3.3605535,-2.1274967,4.035257,-2.1573105,-3.728021,8.922485,0.49528205,-1.5707388,1.6329312
0.4318411091226153,-3.8975868,-2.5901606,3.4972723,-2.372595,-4.039593,7.6436234,-0.51009095,-2.7731507,0.8887853
0.4338403735309839,-3.756384,-2.4804986,3.2518353,-2.1378603,-3.8009593,6.751936,-0.8893979,-3.186583,0.6172578
0.4358396378811449,-3.0039148,-1.8445191,3.214195,-1.4668012,-3.061907,6.1446886,-0.7198565,-2.918608,0.82164395
0.4378389022895135,-1.8254818,-0.83878964,3.2431421,-0.47781664,-1.9796362,5.652786,-0.18345658,-2.2034724,1.3852769
0.4398381666978821,-0.49682,0.29969928,3.1782064,0.6268173,-0.79601395,5.0880723,0.4738168,-1.3547889,2.094523
0.44183743110625073,0.66910905,1.3045397,2.882668,1.6038256,0.21270767,4.2918186,0.99663657,-0.7009142,2.6867478
0.4438366954564117,1.3828968,1.9407157,2.282866,2.2254717,0.7906097,3.1813202,1.1796775,-0.5134178,2.91459
0.4458359598647803,1.4424933,2.0569572,1.3784411,2.331096,0.7611447,1.768257,0.9115171,-0.9498787,2.5960722
0.4478352242731489,0.78007656,1.6189027,0.24379764,1.8666514,0.07150617,0.15296878,0.19379552,-2.0232406,1.6693362
0.44983448868151754,-0.5197136,0.71269494,-0.9926578,0.89612794,-1.1899226,-1.5042694,-0.86719763,-3.604201,0.20612614
0.4518337530316785,-2.2361302,-0.48237818,-2.1851895,-0.41443568,-2.8078196,-3.0351331,-2.098813,-5.4568086,-1.5994251
0.4538330174400471,-4.0560617,-1.7404852,-3.2018278,-1.8348002,-4.4798527,-4.3139176,-3.312404,-7.296066,-3.4654653
0.45583228184841573,-5.644263,-2.8443696,-3.9490397,-3.1222446,-5.8801,-5.2918243,-4.3531485,-8.853164,-5.082329
0.45783154625678435,-6.717543,-3.63336,-4.388767,-4.0731273,-6.7300887,-6.011348,-5.1366534,-9.932043,-6.178718
0.4598308106069453,-7.1002736,-4.0254908,-4.531804,-4.5562434,-6.853662,-6.580471,-5.650503,-10.437665,-6.575342
0.4618300750153139,-6.756013,-4.020372,-4.426412,-4.5309567,-6.2124634,-7.1288424,-5.9359465,-10.377322,-6.2222023
0.46382933942368254,-5.7843146,-3.6778388,-4.13665,-4.0412693,-4.908827,-7.754872,-6.049556,-9.836681,-5.2042103
0.46582860383205116,-4.3887367,-3.0909,-3.7273784,-3.1977198,-3.1624844,-8.487633,-6.0280995,-8.94155,-3.719393
0.4678278681822121,-2.8219507,-2.3570533,-3.2525048,-2.1472936,-1.2582734,-9.271947,-5.866539,-7.8191924,-2.032381
0.46982713259058073,-1.3342112,-1.5618781,-2.7519221,-1.0474564,0.5079507,-9.98831,-5.522871,-6.574536,-0.4221847
0.47182639699894935,-0.12568495,-0.77720475,-2.2648978,-0.044884983,1.8841896,-10.49831,-4.9464836,-5.2822795,0.86593515
0.47382566140731797,0.6801418,-0.065114036,-1.8358343,0.7396776,2.7030058,-10.696039,-4.1163545,-3.994995,1.6580836
0.4758249257574789,1.0447799,0.5134568,-1.5216776,1.218608,2.900115,-10.55051,-3.0736797,-2.756079,1.8683298
0.47782419016584754,0.99858403,0.8942657,-1.3914038,1.3392583,2.5093064,-10.120473,-1.9355948,-1.6144462,1.4988941
0.47982345457421616,0.629296,1.0209222,-1.5094033,1.0894862,1.6505975,-9.531257,-0.8726447,-0.61863655,0.6284915
0.4818227189825848,0.054714803,0.8565008,-1.9153049,0.49686986,0.49546322,-8.930124,-0.06689245,0.19187543,-0.6088141
0.4838219833909534,-0.5955815,0.40579516,-2.5943446,-0.3679427,-0.7615035,-8.4238615,0.34763208,0.80788124,-2.0355716
0.48582124774111435,-1.1998118,-0.27623478,-3.4696994,-1.3965523,-1.9328821,-8.036777,0.32910112,1.2599425,-3.4539726
0.48782051214948297,-1.648152,-1.0782402,-4.3912864,-2.4475634,-2.855146,-7.6847463,-0.043189287,1.6287805,-4.663898
0.4898197765578516,-1.85449,-1.8473604,-5.154903,-3.3624358,-3.4061658,-7.1900973,-0.5802255,2.02964,-5.478375
0.4918190409662202,-1.7642902,-2.4164047,-5.5370207,-3.9863443,-3.5124533,-6.3300204,-1.0264435,2.5841475,-5.7456307
0.49381830531638116,-1.3566257,-2.63712,-5.343535,-4.194738,-3.1527839,-4.902511,-1.1237181,3.389221,-5.3801236
0.4958175697247498,-0.64540577,-2.4113941,-4.4546957,-3.9154406,-2.3570192,-2.789425,-0.6737569,4.490105,-4.3783813
0.4978168341331184,0.31911454,-1.7167782,-2.862331,-3.1489596,-1.2051928,-0.003316629,0.4083325,5.862289,-2.8280394
0.499816098541487,1.459495,-0.61220616,-0.68026876,-1.9721237,0.18359898,3.3049252,2.0756695,7.417374,-0.8955377
0.501815362891648,2.6807017,0.76940274,1.8567959,-0.5306083,1.6635712,6.86521,4.1588416,9.022825,1.1827811
0.5038146273000166,3.8764584,2.242617,4.437005,0.98243845,3.0767422,10.341733,6.4008613,10.525589,3.145628
0.5058138917083852,4.9467664,3.6046486,6.721052,2.361782,4.27816,13.396725,8.510846,11.7817955,4.7465878
0.5078131561167538,5.801587,4.667965,8.406452,3.4241798,5.1506453,15.752677,10.216871,12.676603,5.7964387
0.5098124204669148,6.370875,5.2939663,9.285043,4.0421786,5.6233573,17.237803,11.313238,13.135784,6.198566
0.5118116848752834,6.617144,5.419218,9.289455,4.168136,5.68521,17.810158,11.692049,13.130758,5.967963
0.513810949283652,6.5338497,5.0610075,8.497503,3.8360326,5.377542,17.548351,11.351818,12.672704,5.2049193
0.5158102136920206,6.156757,4.3172946,7.116696,3.1551435,4.795241,16.622538,10.391382,11.810079,4.088107
0.5178094780421816,5.5610547,3.3489156,5.4409866,2.286494,4.065235,15.258827,8.989293,10.623464,2.8233292
0.5198087424505502,4.853385,2.3483858,3.7775474,1.4103224,3.327746,13.687286,7.3675475,9.214009,1.6006501
0.5218080068589188,4.1573544,1.5080463,2.3927944,0.69651425,2.714507,12.10925,5.7560453,7.6956277,0.56997514
0.5238072712672874,3.585575,0.97928727,1.4537416,0.27240494,2.3217196,10.667161,4.351703,6.174075,-0.18762077
0.5258065356174484,3.214294,0.84374696,1.0066093,0.203653,2.1954088,9.4294615,3.2848597,4.728962,-0.6521091
0.527805800025817,3.063545,1.0973105,0.9887201,0.48801222,2.3254106,8.394525,2.6013627,3.397747,-0.8450069
0.5298050644341856,3.0850132,1.6500584,1.2595316,1.0565826,2.643907,7.5044885,2.2576501,2.167747,-0.81469417
0.5318043288425542,3.1739302,2.3477676,1.6492678,1.7910538,3.0425382,6.668549,2.1375456,0.98441684,-0.6174251
0.5338035931927152,3.194533,3.0093746,2.0064034,2.548033,3.392443,5.791279,2.0856597,-0.22678167,-0.3057352
0.5358028576010838,3.0204873,3.4711075,2.2307546,3.189376,3.573536,4.7988353,1.9495494,-1.5273259,0.06771474
0.5378021220094524,2.5758433,3.6290586,2.28544,3.6117554,3.5032969,3.6572719,1.6213006,-2.9332423,0.44815275
0.539801386417821,1.8605598,3.4643316,2.1878803,3.7681465,3.1526473,2.37739,1.0644128,-4.397631,0.7769388
0.541800650767982,0.9590316,3.0475872,1.9884274,3.678282,2.557944,1.0082433,0.32196087,-5.8087316,0.99909514
0.5437999151763506,0.021944653,2.5198193,1.7467352,3.4236336,1.8152051,-0.38039374,-0.49749765,-7.0128875,1.0809636
0.5457991795847192,-0.77289414,2.050326,1.5043654,3.12426,1.0593837,-1.7228719,-1.2568656,-7.8551283,1.0213892
0.5477984439930879,-1.2678853,1.7901546,1.2743737,2.9078503,0.43777147,-2.9775064,-1.8304914,-8.221773,0.8557425
0.5497977083432488,-1.3709706,1.8300539,1.0360218,2.8742373,0.07101417,-4.1378975,-2.1414878,-8.075166,0.64635605
0.5517969727516174,-1.0791801,2.18031,0.7496084,3.0718932,0.029121142,-5.223153,-2.1776836,-7.4653625,0.47332227
0.553796237159986,-0.48012272,2.771639,0.37154406,3.4851463,0.31235626,-6.260302,-1.989227,-6.5184608,0.40352708
0.5557955015683547,0.27542076,3.4835448,-0.120505884,4.044204,0.8518529,-7.2552686,-1.66094,-5.400109,0.47901478
0.5577947659185156,1.0112395,4.1799474,-0.71231735,4.647463,1.524276,-8.170461,-1.2806838,-4.2749214,0.7139294
0.5597940303268842,1.5753112,4.7474837,-1.3426665,5.1906524,2.1849444,-8.919708,-0.9085367,-3.2650926,1.0991133
0.5617932947352529,1.8680233,5.1162705,-1.911985,5.5911283,2.6965187,-9.381733,-0.563788,-2.4313235,1.614533
0.5637925591436215,1.8602821,5.2627616,-2.3065197,5.8013353,2.9616544,-9.435838,-0.23110703,-1.7742792,2.2349885
0.5657918234937824,1.5843221,5.1923385,-2.437266,5.803701,2.9348562,-9.006596,0.11442982,-1.2547547,2.920997
0.567791087902151,1.1063085,4.917508,-2.2685244,5.598646,2.6204567,-8.09845,0.4804337,-0.8260475,3.612734
0.5697903523105197,0.50498104,4.441162,-1.8415991,5.191047,2.0660694,-6.809562,0.8395105,-0.45706555,4.219148
0.5717896167188883,-0.15596345,3.7530954,-1.2654805,4.5808787,1.3374546,-5.31334,1.129489,-0.14652932,4.624056
0.5737888810690492,-0.8286446,2.8480213,-0.6854075,3.7718165,0.5087622,-3.8119543,1.2773533,0.08817369,4.7096243
0.5757881454774179,-1.478066,1.7480974,-0.23843105,2.7838092,-0.3498151,-2.4811807,1.2319514,0.22944745,4.3925776
0.5777874098857865,-2.0609329,0.52873844,0.005063462,1.6743749,-1.1680695,-1.414917,0.9990912,0.28855085,3.6745489
0.5797866742941551,-2.509368,-0.6751069,0.06560098,0.54761326,-1.8708336,-0.60070795,0.6569113,0.32503325,2.6580584
0.581785938644316,-2.735164,-1.6891057,0.05140585,-0.45708558,-2.3805518,0.07104477,0.3447863,0.4439614,1.5231229
0.5837852030526847,-2.6388626,-2.337476,0.123104356,-1.1894505,-2.6189823,0.7642712,0.2258599,0.77412385,0.5028448
0.5857844674610533,-2.1435661,-2.495433,0.43198603,-1.530784,-2.5273676,1.6374629,0.435038,1.4286373,-0.19764742
0.5877837318694219,-1.2292966,-2.1334913,1.0578718,-1.433047,-2.085051,2.7820692,1.0282735,2.4613929,-0.45580366
0.5897829962195829,0.041487373,-1.3361644,1.9772426,-0.9416764,-1.32768,4.191797,1.9552103,3.8350217,-0.2553092
0.5917822606279515,1.5212437,-0.29088917,3.0607436,-0.19242449,-0.35118064,5.759964,3.061741,5.4137864,0.31381798
0.5937815250363201,2.9948623,0.7558554,4.111888,0.61750484,0.6978598,7.3125525,4.125812,6.9835896,1.0950834
0.5957807894446887,4.2264247,1.5592635,4.9302974,1.2802507,1.6538943,8.662465,4.91462,8.299392,1.9278425
0.5977800537948497,5.008522,1.9337537,5.368571,1.6261191,2.3649938,9.661124,5.242984,9.139958,2.6846764
0.5997793182032183,5.210102,1.7961704,5.377992,1.5652262,2.727177,10.238164,5.0201435,9.361565,3.2984433
0.6017785826115869,4.806549,1.1759644,5.00774,1.1010585,2.7077117,10.407163,4.266386,8.929961,3.7448955
0.6037778470199555,3.8790286,0.19464286,4.377609,0.31691757,2.3444796,10.246271,3.0978453,7.9206457,4.008904
0.6057771114283241,2.5931013,-0.9726366,3.6285882,-0.654398,1.7327521,9.857809,1.6901746,6.4946065,4.060778
0.6077763757784851,1.1521022,-2.1439462,2.8771868,-1.6700068,0.9948,9.328918,0.23045097,4.849575,3.8420186
0.6097756401868537,-0.24423762,-3.168643,2.1850643,-2.608724,0.25203067,8.701221,-1.124842,3.170675,3.285163
0.6117749045952223,-1.4399642,-3.948052,1.5555774,-3.388934,-0.40016672,7.9634867,-2.2753725,1.5918597,2.3495886
0.6137741690035909,-2.3444214,-4.4369373,0.9529417,-3.9682317,-0.9076254,7.0661983,-3.1821094,0.17636974,1.0612509
0.6157734333537519,-2.929743,-4.627657,0.34010255,-4.3268785,-1.2511908,5.9519567,-3.850441,-1.073037,-0.46056324
0.6177726977621205,-3.2190044,-4.5347056,-0.29568437,-4.4548073,-1.4415193,4.5859575,-4.30969,-2.1912112,-2.0160797
0.6197719621704891,-3.2679334,-4.1800647,-0.9269593,-4.340788,-1.5078148,2.980035,-4.591559,-3.2220757,-3.3618019
0.6217712265788577,-3.1422997,-3.589592,-1.4949433,-3.9743855,-1.4841383,1.1985158,-4.7156243,-4.18883,-4.2808137
0.6237704909290187,-2.909984,-2.7978446,-1.9276085,-3.3574603,-1.4095035,-0.65094453,-4.688295,-5.0854483,-4.62541
0.6257697553373873,-2.6352878,-1.8583738,-2.167416,-2.5191875,-1.3219807,-2.4384913,-4.510301,-5.8796096,-4.3626323
0.6277690197457559,-2.3816214,-0.8516773,-2.1980824,-1.5292525,-1.2617501,-4.0431294,-4.1904,-6.528959,-3.583429
0.6297682841541246,-2.2091458,0.11905757,-2.0468113,-0.49441832,-1.2683921,-5.3696036,-3.7511144,-6.99739,-2.4699712
0.6317675485042855,-2.1697562,0.9423902,-1.776069,0.45711732,-1.37457,-6.359892,-3.2300298,-7.2662253,-1.2484304
0.6337668129126541,-2.2992532,1.518226,-1.4695336,1.2001832,-1.6010553,-6.99584,-2.6745155,-7.337342,-0.14028822
0.6357660773210227,-2.597358,1.7868333,-1.1983027,1.646998,-1.940698,-7.2846875,-2.1251342,-7.2212553,0.68820757
0.6377653417293914,-3.0204937,1.7434936,-1.0028149,1.7682902,-2.357888,-7.248183,-1.604931,-6.927043,1.1499931
0.6397646060795523,-3.4840913,1.4420667,-0.8858713,1.6004205,-2.7916095,-6.9135246,-1.1128802,-6.4542985,1.2423279
0.6417638704879209,-3.8772192,0.98183775,-0.8138567,1.235296,-3.1649613,-6.3130913,-0.62912476,-5.7966948,1.0346143
0.6437631348962896,-4.0881605,0.48182762,-0.73557204,0.79447407,-3.403278,-5.487783,-0.12452766,-4.9519897,0.6448017
0.6457623993046582,-4.0359287,0.050607532,-0.5998174,0.39592898,-3.453592,-4.495644,0.42156756,-3.940706,0.20992522
0.6477616636548191,-3.6957579,-0.24093646,-0.37833208,0.12411438,-3.2995331,-3.4204946,1.0067371,-2.8171322,-0.14373787
0.6497609280631877,-3.1078045,-0.37207115,-0.077997155,0.012068862,-2.9669926,-2.370437,1.599877,-1.6718266,-0.32580912
0.6517601924715564,-2.367106,-0.3689693,0.26252225,0.039686874,-2.5193486,-1.4651726,2.1457431,-0.6156476,-0.29240733
0.653759456879925,-1.5949764,-0.28576472,0.58597875,0.14896145,-2.041702,-0.81263703,2.5819087,0.25007483,-0.052863337
0.6557587212300859,-0.90671974,-0.18277463,0.8310542,0.26530787,-1.6219782,-0.4856655,2.85605,0.860012,0.33312762
0.6577579856384546,-0.37777677,-0.1047093,0.94633853,0.32222578,-1.331136,-0.501382,2.9431572,1.2129877,0.7801653
0.6597572500468232,-0.022165438,-0.06654269,0.90871567,0.28058037,-1.2053331,-0.8089786,2.856291,1.378534,1.190512
0.6617565144551918,0.20263153,-0.056608547,0.7260171,0.13289288,-1.2434567,-1.2964523,2.6432798,1.480591,1.4717326
0.6637557788053527,0.38094437,-0.045627765,0.4356649,-0.097903796,-1.4082326,-1.8101217,2.3765662,1.669064,1.5705688
0.6657550432137214,0.61046475,-0.003288209,0.0974805,-0.37109274,-1.6360464,-2.1845737,2.1373122,2.0815508,1.4752183
0.66775430762209,0.97260463,0.089112386,-0.21235265,-0.6421749,-1.8524983,-2.2732863,2.0012167,2.8089345,1.2276047
0.6697535720304586,1.511404,0.23054995,-0.4100241,-0.8765304,-1.9860222,-1.9750676,2.0259748,3.8730073,0.91891354
0.6717528363806196,2.223404,0.40350902,-0.41002774,-1.0561733,-1.9836566,-1.24601,2.2478273,5.222916,0.6715092
0.6737521007889882,3.0626905,0.58302265,-0.1363733,-1.1805269,-1.8165783,-0.09810091,2.6822357,6.75036,0.6121605
0.6757513651973568,3.9494658,0.74281895,0.46254492,-1.2650858,-1.4869884,1.4071196,3.3208249,8.305548,0.8406403
0.6777506296057254,4.7832956,0.8602467,1.3939561,-1.3378526,-1.0320561,3.1712463,4.128044,9.72178,1.3907592
0.6797498939558864,5.4536695,0.9163272,2.606122,-1.4326487,-0.52137715,5.0728335,5.0377984,10.834451,2.210368
0.681749158364255,5.8542266,0.89262116,3.9814694,-1.583737,-0.042556908,6.9758816,5.949293,11.49491,3.1567874
0.6837484227726236,5.8880563,0.7644096,5.3461905,-1.8221678,0.30832344,8.736732,6.730023,11.581304,4.0187306
0.6857476871809922,5.484428,0.5013267,6.494454,-2.1699915,0.4494141,10.209577,7.228085,11.0121,4.5590415
0.6877469515311532,4.6119123,0.07286552,7.2321663,-2.6341257,0.33367965,11.256324,7.2956157,9.7562065,4.580246
0.6897462159395218,3.2957985,-0.5407528,7.421187,-3.2009401,-0.03326387,11.758265,6.8177476,7.8484254,3.9831889
0.6917454803478904,1.6239678,-1.3396095,7.003002,-3.8378084,-0.5917524,11.627688,5.737705,5.395014,2.7869148
0.693744744756259,-0.25205058,-2.2939594,6.013843,-4.492469,-1.2320902,10.821833,4.075941,2.572777,1.1360276
0.69574400910642,-2.1356354,-3.3429277,4.569023,-5.1004586,-1.818352,9.3518715,1.9331142,-0.38744393,-0.7338124
0.6977432735147886,-3.8186958,-4.4016433,2.831681,-5.5968475,-2.2237532,7.284508,-0.5251498,-3.2322843,-2.5580983
0.6997425379231572,-5.1231127,-5.3754344,0.97115594,-5.9297915,-2.363517,4.7355313,-3.0964081,-5.7265425,-4.1038365
0.7017418023315258,-5.933768,-6.173912,-0.8652306,-6.0707235,-2.2163577,1.8607259,-5.5723615,-7.688536,-5.2132897
0.7037410666816868,-6.2215395,-6.7275457,-2.5729246,-6.0210185,-1.8300439,-1.161245,-7.771162,-9.018452,-5.8261323
0.7057403310900554,-6.048914,-6.998401,-4.087119,-5.813264,-1.3109344,-4.1458945,-9.56045,-9.710186,-5.9688463
0.707739595498424,-5.5471945,-6.9860826,-5.374932,-5.5047193,-0.79038346,-6.920728,-10.86818,-9.840548,-5.7315903
0.7097388599067926,-4.8791122,-6.725437,-6.418607,-5.1644406,-0.38720948,-9.340687,-11.681009,-9.541775,-5.2390447
0.7117381242569536,-4.2053456,-6.281345,-7.2103434,-4.862325,-0.18217142,-11.300022,-12.035107,-8.968701,-4.630561
0.7137373886653222,-3.648077,-5.736811,-7.7514124,-4.65433,-0.1982864,-12.740474,-11.999796,-8.263657,-4.049159
0.7157366530736908,-3.2665749,-5.1750855,-8.0526495,-4.570889,-0.39999446,-13.649112,-11.656925,-7.5269465,-3.629324
0.7177359174820594,-3.0602853,-4.6643467,-8.1413555,-4.61157,-0.7135009,-14.0535555,-11.085498,-6.808323,-3.4884937
0.7197351818904281,-2.974277,-4.2416677,-8.058088,-4.7438397,-1.0463427,-14.006412,-10.347882,-6.106112,-3.7098308
0.721734446240589,-2.92102,-3.904292,-7.8476567,-4.907657,-1.3128315,-13.5714855,-9.482316,-5.382871,-4.3162446
0.7237337106489576,-2.8046272,-3.610417,-7.547559,-5.026227,-1.4514656,-12.807056,-8.502888,-4.5867295,-5.253125
0.7257329750573263,-2.5411623,-3.288776,-7.1761875,-5.0195603,-1.4304408,-11.755904,-7.404391,-3.6716871,-6.3834743
0.7277322394656949,-2.0789983,-2.859582,-6.726991,-4.8214264,-1.2509686,-10.445767,-6.1751595,-2.6195364,-7.50877
0.7297315038158558,-1.4066337,-2.2572346,-6.173665,-4.3933387,-0.93660736,-8.896683,-4.8082614,-1.4473002,-8.406692
0.7317307682242244,-0.5621886,-1.4527249,-5.4892416,-3.7363887,-0.5327109,-7.136365,-3.3149786,-0.210344,-8.88873
0.7337300326325931,0.37484768,-0.4650472,-4.654239,-2.8923614,-0.094697416,-5.2138076,-1.7297604,1.007024,-8.843814
0.7357292970409617,1.2879945,0.6365052,-3.6793802,-1.9392705,0.3147112,-3.2124977,-0.11388114,2.1012025,-8.268387
0.7377285613911226,2.0516403,1.7482558,-2.6067207,-0.9737845,0.63973224,-1.2483512,1.4542036,2.9746969,-7.2544727
0.7397278257994913,2.5514207,2.7511795,-1.5141064,-0.09447399,0.83717024,0.5377558,2.8867548,3.5507698,-5.971539
0.7417270902078599,2.710787,3.5396879,-0.49245006,0.61958134,0.8862189,2.0061066,4.1049223,3.7934334,-4.612021
0.7437263546162285,2.512518,4.0458198,0.3714352,1.1244885,0.7965403,3.0477457,5.0509686,3.7176502,-3.3451524
0.7457256189663894,2.0110097,4.2569737,1.021081,1.4211438,0.60885674,3.6171567,5.7055783,3.3988004,-2.2830226
0.7477248833747581,1.3243705,4.2201157,1.4500102,1.5531268,0.38696975,3.7533083,6.0932555,2.9641607,-1.4620034
0.7497241477831267,0.6144706,4.0320516,1.7087046,1.5945611,0.20496032,3.583066,6.280833,2.5760975,-0.8546394
0.7517234121914953,0.056968167,3.8196986,1.9003549,1.6336286,0.1325912,3.3056712,6.3683596,2.4053602,-0.39180872
0.7537226765416563,-0.19340518,3.7125914,2.1610482,1.7528546,0.22496639,3.1560326,6.469526,2.5990953,0.014485205
0.7557219409500249,-0.046830796,3.8067985,2.6206439,2.0051224,0.50299215,3.3490148,6.680914,3.236588,0.43856367
0.7577212053583935,0.50857043,4.1413403,3.3658814,2.4025352,0.96043766,4.026268,7.056009,4.3039346,0.9255745
0.7597204697667621,1.395977,4.686355,4.4130516,2.911982,1.5600418,5.2197194,7.586815,5.6822057,1.4884816
0.7617197341169231,2.4632654,5.3441854,5.689215,3.4602878,2.2455423,6.8328295,8.1954775,7.15443,2.1028981
0.7637189985252917,3.5161464,5.9717956,7.0407085,3.9505553,2.9507575,8.657216,8.748227,8.445859,2.709332
0.7657182629336603,4.3572574,6.412903,8.262091,4.284452,3.6106296,10.4135475,9.082347,9.276261,3.2314706
0.7677175273420289,4.8297906,6.5345883,9.139722,4.3859353,4.1686244,11.809651,9.043404,9.421846,3.5922396
0.7697167916921899,4.847389,6.2567234,9.495908,4.2184567,4.5841208,12.596978,8.520227,8.766378,3.7288916
0.7717160561005585,4.407886,5.565259,9.220203,3.79143,4.8304834,12.610904,7.468452,7.3283014,3.6037276
0.7737153205089271,3.587605,4.512851,8.292026,3.1589768,4.8984165,11.7939205,5.920674,5.258544,3.2210832
0.7757145849172957,2.5151854,3.199738,6.7758565,2.4051247,4.790051,10.189051,3.9756405,2.8044646,2.6269276
0.7777138492674567,1.340554,1.7516435,4.8075314,1.6247072,4.5161753,7.921266,1.7777544,0.2580183,1.9082252
0.7797131136758253,0.19763811,0.29353556,2.5645463,0.9027195,4.0890946,5.167373,-0.5079383,-2.105105,1.1699078
0.7817123780841939,-0.8171552,-1.06796,0.23630363,0.29748243,3.5242343,2.1279461,-2.72175,-4.0736113,0.49795818
0.7837116424925625,-1.6480373,-2.2489724,-1.9947033,-0.16218595,2.8430743,-0.9911504,-4.7209744,-5.524939,-0.04614106
0.7857109068427235,-2.2809021,-3.1903021,-3.975892,-0.479118,2.0702815,-3.9936805,-6.390129,-6.4293213,-0.4550476
0.7877101712510921,-2.7150736,-3.8480048,-5.5934076,-0.67403823,1.2479017,-6.701174,-7.6407084,-6.825884,-0.7675878
0.7897094356594607,-2.9500692,-4.1860948,-6.771711,-0.77031916,0.43393505,-8.958614,-8.408743,-6.7929163,-1.0402788
0.7917087000678293,-2.9708922,-4.1733894,-7.4751287,-0.7807839,-0.29626963,-10.643899,-8.655027,-6.41348,-1.3178157
0.7937079644179903,-2.7472396,-3.7847784,-7.69783,-0.69646615,-0.8570646,-11.674686,-8.365029,-5.752767,-1.5952752
0.7957072288263589,-2.243472,-3.0082743,-7.4566917,-0.48560885,-1.1643317,-12.015966,-7.5520163,-4.847735,-1.8028879
0.7977064932347275,-1.4392622,-1.8581381,-6.7899165,-0.1039024,-1.1556823,-11.686275,-6.261493,-3.711162,-1.8180513
0.7997057576430961,-0.35330945,-0.3869213,-5.7530327,0.48643294,-0.8138382,-10.751602,-4.572634,-2.3470223,-1.509
0.8017050219932571,0.95442206,1.3065928,-4.4282513,1.2954588,-0.16951503,-9.321475,-2.5965564,-0.7650805,-0.79465723
0.8037042864016257,2.3724806,3.074261,-2.9214664,2.283692,0.6857386,-7.534829,-0.47233897,0.9984948,0.3083613
0.8057035508099943,3.7597625,4.730767,-1.3683323,3.3527443,1.6152672,-5.545758,1.6445478,2.8794098,1.6564025
0.807702815218363,4.9733553,6.078759,0.083115526,4.3548436,2.462231,-3.5048273,3.5998404,4.7853,3.0090744
0.8097020795685239,5.8998117,6.9419966,1.2920338,5.11759,3.0816371,-1.5433314,5.259218,6.609095,4.0902967
0.8117013439768925,6.479952,7.2022624,2.1541796,5.4797544,3.3696404,0.24092214,6.5296535,8.248178,4.671456
0.8137006083852611,6.7183757,6.8300576,2.629402,5.333297,3.2842345,1.7965299,7.3757725,9.621106,4.6523166
0.8156998727936298,6.6774526,5.8968115,2.752439,4.6525755,2.8517587,3.1206596,7.827499,10.682139,4.0922527
0.8176991371437907,6.45067,4.5649867,2.6313157,3.5040035,2.1524727,4.2551513,7.972345,11.421605,3.1978867
0.8196984015521593,6.135475,3.0579767,2.417901,2.0361524,1.3018069,5.273508,7.939337,11.864101,2.2564223
0.821697665960528,5.7969494,1.6099284,2.2675166,0.44317216,0.4119513,6.258084,7.8655586,12.048172,1.5415351
0.8236969303688966,5.4520054,0.41567546,2.2961705,-1.0783805,-0.43190727,7.2740703,7.862254,12.009591,1.2252641
0.8256961947190575,5.0737357,-0.40606326,2.5509496,-2.3700087,-1.1793058,8.347782,7.987165,11.767501,1.330684
0.8276954591274261,4.6044903,-0.8327996,3.0016508,-3.3403604,-1.8222976,9.451031,8.228623,11.3182125,1.7359344
0.8296947235357948,3.9866927,-0.9301818,3.5504997,-3.9719408,-2.3751385,10.497927,8.507561,10.63723,2.2238567
0.8316939879441634,3.1953318,-0.8235808,4.0643845,-4.309534,-2.8534253,11.358535,8.699198,9.69856,2.5624902
0.8336932522943243,2.2536209,-0.65755224,4.4144955,-4.4331713,-3.2569368,11.887273,8.667931,8.491292,2.5905583
0.835692516702693,1.23473,-0.5606984,4.5011683,-4.432308,-3.5622911,11.9523,8.30263,7.037339,2.246818
0.8376917811110616,0.24590637,-0.6170962,4.274142,-4.381644,-3.7262244,11.466267,7.5459867,5.396927,1.5865608
0.8396910455194302,-0.59872085,-0.85365397,3.7415364,-4.326442,-3.7023616,10.413678,6.413384,3.6666882,0.7573832
0.8416903099277988,-1.2131253,-1.2472187,2.9549723,-4.2840705,-3.466384,8.85368,4.9872937,1.9582187,-0.07164238
0.8436895742779598,-1.5668306,-1.7390584,1.9993781,-4.2495174,-3.0370672,6.9152007,3.3971815,0.37213734,-0.74815464
0.8456888386863284,-1.6948,-2.2535374,0.9725727,-4.2049694,-2.4844377,4.770806,1.7892418,-1.0274029,-1.1839191
0.847688103094697,-1.6929619,-2.716225,-0.024159748,-4.127592,-1.919773,2.6062834,0.2912507,-2.2340863,-1.3517265
0.8496873675030656,-1.7022717,-3.0698447,-0.9012934,-3.9977403,-1.4795861,0.5835323,-1.019733,-3.3089082,-1.2742981
0.8516866318532266,-1.8731375,-3.280007,-1.5892637,-3.79972,-1.2882009,-1.1845897,-2.131635,-4.365705,-0.99654746
0.8536858962615952,-2.3370667,-3.3434074,-2.0501735,-3.5263345,-1.4293358,-2.6552687,-3.10233,-5.550443,-0.56343836
0.8556851606699638,-3.175233,-3.2858214,-2.28197,-3.178304,-1.9191948,-3.8545518,-4.0420833,-7.003648,-0.005021585
0.8576844250783324,-4.4001107,-3.1607163,-2.319349,-2.7684548,-2.704622,-4.864424,-5.08592,-8.823159,0.6624082
0.8596836894284934,-5.9500413,-3.0402503,-2.2330704,-2.3213162,-3.6703064,-5.8004355,-6.357492,-11.033603,1.4146363
0.861682953836862,-7.6949134,-3.0005617,-2.1115963,-1.8695054,-4.6656694,-6.7785435,-7.9319344,-13.566683,2.2085328
0.8636822182452306,-9.458854,-3.1053176,-2.0490746,-1.4499911,-5.5424747,-7.8874164,-9.809537,-16.26354,2.966742
0.8656814826535992,-11.053868,-3.3874662,-2.121265,-1.0940707,-6.187174,-9.167055,-11.905721,-18.898016,3.5868104
0.8676807470037602,-12.303187,-3.832592,-2.3683863,-0.8170666,-6.54101,-10.594763,-14.054573,-21.20572,3.9585953
0.8696800114121288,-13.075727,-4.376816,-2.7897606,-0.6117343,-6.604335,-12.090514,-16.037697,-22.933167,3.9882498
0.8716792758204974,-13.298357,-4.9104834,-3.3347762,-0.44472653,-6.4252815,-13.525207,-17.616447,-23.873932,3.6352792
0.873678540228866,-12.960279,-5.301476,-3.9237206,-0.26363382,-6.0746365,-14.7490635,-18.578238,-23.903698,2.9193752
0.875677804579027,-12.100244,-5.4194174,-4.4602895,-0.005536654,-5.620816,-15.613965,-18.769062,-22.991903,1.9291376
0.8776770689873956,-10.793363,-5.1668234,-4.854181,0.38556504,-5.1065693,-16.00039,-18.120476,-21.202042,0.8028569
0.8796763333957642,-9.123583,-4.4991527,-5.039097,0.946795,-4.5349827,-15.833792,-16.652706,-18.669233,-0.29898188
0.8816755978041328,-7.1725764,-3.4354043,-4.9814935,1.684608,-3.8782327,-15.09154,-14.465413,-15.573089,-1.2250428
0.8836748621542938,-5.012317,-2.0530965,-4.6797185,2.5710335,-3.087134,-13.7997875,-11.713827,-12.107651,-1.8638488
0.8856741265626624,-2.705277,-0.4681191,-4.152106,3.5487866,-2.1110773,-12.019039,-8.577516,-8.451091,-2.1544569
0.887673390971031,-0.31154606,1.1895976,-3.4250581,4.5407505,-0.91461635,-9.828695,-5.2329288,-4.748238,-2.0892732
0.8896726553793997,2.1032157,2.800669,-2.5198405,5.4631658,0.50706905,-7.313169,-1.8335692,-1.1044589,-1.705853
0.8916719197295606,4.4569016,4.270161,-1.4479162,6.236469,2.1161294,-4.5555205,1.4956158,2.4056215,-1.0691694
0.8936711841379292,6.6563015,5.537428,-0.21484604,6.798168,3.8372564,-1.6347593,4.6584945,5.7281075,-0.25909603
0.8956704485462978,8.600295,6.5689044,1.1616348,7.106862,5.5559316,1.3634927,7.5753956,8.8115,0.63472307
0.8976697129546665,10.196037,7.3517103,2.636348,7.1483784,7.1412835,4.3406553,10.173802,11.594824,1.5221888
0.8996689773048274,11.375309,7.885148,4.1311684,6.936044,8.461317,7.182753,12.384701,14.006424,2.306137
0.901668241713196,12.099822,8.17214,5.5300393,6.506464,9.399437,9.761843,14.141661,15.966349,2.8792322
0.9036675061215647,12.3752365,8.219861,6.698869,5.916132,9.883504,11.947619,15.388451,17.401535,3.1474097
0.9056667705299333,12.245328,8.040259,7.512063,5.2316294,9.895678,13.626839,16.09145,18.264708,3.035462
0.9076660348800942,11.77976,7.6550593,7.8930645,4.5214767,9.472043,14.7271805,16.25284,18.548454,2.5322623
0.9096652992884628,11.055542,7.0900745,7.824108,3.8411927,8.694776,15.225052,15.910762,18.286863,1.6759626
0.9116645636968315,10.142821,6.376373,7.3575726,3.2264578,7.6734085,15.152575,15.13881,17.552368,0.58887357
0.9136638281052001,9.091732,5.545135,6.604863,2.689412,6.520652,14.594994,14.037967,16.442793,-0.55370134
0.915663092455361,7.936076,4.6277184,5.703448,2.2219815,5.3384113,13.671531,12.722873,15.064706,-1.5528936
0.9176623568637297,6.706775,3.6604035,4.789697,1.8096484,4.213999,12.520239,11.311402,13.523753,-2.221395
0.9196616212720983,5.446018,2.6878126,3.9681041,1.4426728,3.2224996,11.274433,9.911524,11.913789,-2.4327598
0.9216608856804669,4.231809,1.7715812,3.3084629,1.132095,2.4345558,10.052781,8.617975,10.326532,-2.130799
0.9236601500306278,3.1652763,0.98535955,2.8411825,0.90976876,1.9080644,8.943586,7.5009985,8.843234,-1.3454459
0.9256594144389965,2.3660827,0.4068757,2.57076,0.82460797,1.6877791,8.000859,6.6035852,7.5422015,-0.18175812
0.9276586788473651,1.9263467,0.093092434,2.4809332,0.9201097,1.7707039,7.2344694,5.927705,6.4799643,1.2027203
0.9296579432557337,1.87055,0.05452691,2.5330708,1.2111664,2.0922167,6.603721,5.422062,5.6683054,2.6163642
0.9316572076058947,2.1206784,0.23256367,2.654719,1.6621195,2.507422,6.0134134,4.9749784,5.0517254,3.8478365
0.9336564720142633,2.489067,0.49444094,2.7264872,2.179347,2.8138936,5.318173,4.4189825,4.491283,4.680688
0.9356557364226319,2.7089522,0.64928985,2.5825222,2.620771,2.7938502,4.3373876,3.5501397,3.7742803,4.916714
0.9376550008310005,2.4888127,0.48298472,2.0279918,2.8215158,2.2719991,2.8824565,2.1624982,2.6416824,4.398195
0.9396542651811615,1.5975305,-0.18489285,0.8892137,2.6376166,1.185104,0.80067724,0.09959246,0.8515374,3.05524
0.9416535295895301,-0.07553051,-1.455058,-0.93171316,1.9813856,-0.39907852,-1.981962,-2.70135,-1.7621167,0.9447989
0.9436527939978987,-2.4765952,-3.3109138,-3.4058206,0.8521389,-2.2775445,-5.4251494,-6.1752496,-5.2302227,-1.7280868
0.9456520584062673,-5.3915505,-5.6122413,-6.3515034,-0.65637076,-4.163717,-9.36199,-10.123953,-9.423171,-4.62107
0.9476513227564283,-8.497779,-8.122263,-9.455961,-2.3743277,-5.771415,-13.516291,-14.245205,-14.065533,-7.3102903
0.9496505871647969,-11.450262,-10.564507,-12.35344,-4.0972877,-6.89739,-17.557035,-18.19475,-18.794382,-9.406426
0.9516498515731655,-13.964275,-12.681042,-14.699039,-5.6277733,-7.4782653,-21.160608,-21.65507,-23.23516,-10.624815
0.9536491159815341,-15.884297,-14.296316,-16.27099,-6.8237624,-7.6169963,-24.089037,-24.410212,-27.086819,-10.884904
0.9556483803316951,-17.202055,-15.34822,-17.025383,-7.6227717,-7.5242834,-26.242943,-26.389572,-30.177917,-10.332135
0.9576476447400637,-18.034271,-15.887934,-17.095165,-8.043816,-7.452285,-27.67698,-27.672693,-32.48532,-9.286566
0.9596469091484323,-18.55116,-16.045366,-16.733414,-8.162116,-7.588799,-28.570086,-28.449646,-34.101704,-8.136174
0.9616461735568009,-18.90387,-15.977832,-16.227097,-8.074984,-7.988394,-29.164782,-28.953312,-35.177105,-7.2225127
0.9636454379651695,-19.15159,-15.807638,-15.794385,-7.8575697,-8.5397625,-29.676214,-29.371744,-35.83737,-6.725176
0.9656447023153305,-19.240993,-15.581292,-15.523169,-7.537291,-8.999496,-30.215103,-29.780855,-36.129284,-6.6232214
0.9676439667236991,-19.01886,-15.251121,-15.346372,-7.0851364,-9.067361,-30.735592,-30.10592,-35.990147,-6.719951
0.9696432311320677,-18.289507,-14.690572,-15.082201,-6.4320745,-8.495856,-31.030638,-30.129532,-35.262005,-6.7308283
0.9716424955404364,-16.885748,-13.733187,-14.493482,-5.499404,-7.179518,-30.77078,-29.540813,-33.739487,-6.384376
0.9736417598905973,-14.742422,-12.229227,-13.375479,-4.2388606,-5.211246,-29.585321,-28.01633,-31.24031,-5.5385156
0.9756410242989659,-11.928668,-10.093655,-11.614297,-2.65997,-2.8728642,-27.155699,-25.304502,-27.665081,-4.212107
0.9776402887073345,-8.635339,-7.33822,-9.21456,-0.8393407,-0.55652004,-23.300833,-21.293259,-23.03375,-2.5746412
0.9796395531157032,-5.1323643,-4.078687,-6.2897177,1.0908462,1.3419966,-18.032675,-16.045916,-17.491823,-0.8860884
0.9816388174658641,-1.6964078,-0.5134812,-3.0211456,2.974043,2.5360327,-11.566512,-9.792911,-11.281636,0.5982962
0.9836380818742327,1.4606129,3.112855,0.37835506,4.6643124,2.9398587,-4.29854,-2.8981402,-4.6984677,1.6994755
0.9856373462826014,4.2400527,6.5605907,3.7158616,6.06246,2.68856,3.2660694,4.209118,1.9629736,2.3697798
0.98763661069097,6.6558495,9.630814,6.835085,7.1296725,2.0915885,10.58965,11.09477,8.440251,2.6851528
0.9896358750411309,8.810657,12.193067,9.621583,7.885009,1.5433066,17.180882,17.37547,14.523741,2.7991385
0.9916351394494995,10.82749,14.186155,11.993181,8.383442,1.393339,22.65719,22.750362,20.04739,2.888471
0.9936344038578682,12.78554,15.606925,13.894229,8.686943,1.8360826,26.785126,27.01703,24.878067,3.0942001
0.9956336682662368,14.6748295,16.488258,15.292098,8.838567,2.8515723,29.49062,30.070288,28.899733,3.4924994
0.9976329326163977,16.37382,16.873278,16.170052,8.848221,4.216721,30.842112,31.887808,31.998713,4.074894
0.9996321970247664,17.684517,16.801598,16.525784,8.69422,5.5753627,31.019957,32.522198,34.08155,4.7442226
1.001631461433135,18.378185,16.305656,16.387712,8.341585,6.550214,30.274206,32.087086,35.081688,5.3759055
1.0036307258415036,18.278046,15.418997,15.806505,7.7662024,6.8679156,28.879993,30.747644,34.988102,5.83169
1.0056299901916645,17.326008,14.193661,14.863747,6.979897,6.449764,27.102863,28.712158,33.866817,6.009599
1.0076292546000332,15.617758,12.709318,13.662117,6.040434,5.442964,25.165482,26.211445,31.864986,5.8723774
1.0096285190084018,13.398254,11.07414,12.321371,5.0455413,4.174228,23.230358,23.475714,29.199142,5.4638944
1.0116277834167704,11.016131,9.41419,10.964438,4.112348,3.0551035,21.392332,20.707466,26.12896,4.898439
1.0136270477669314,8.843248,7.8485827,9.697519,3.3457763,2.4534564,19.678438,18.054136,22.915648,4.330632
1.0156263121753,7.1806736,6.4623866,8.591112,2.806308,2.5717897,18.056889,15.590227,19.779072,3.9107335
1.0176255765836686,6.176576,5.2824035,7.6522226,2.4883237,3.3808858,16.446955,13.310963,16.859497,3.7182791
1.0196248409920372,5.798185,4.272818,6.8184648,2.3193767,4.62611,14.73619,11.145741,14.204963,3.727567
1.0216241053421982,5.8265557,3.3400824,5.9560037,2.1734273,5.886565,12.795217,8.98005,11.767956,3.7893033
1.0236233697505668,5.9296966,2.3652785,4.889747,1.9083971,6.7160025,10.502665,6.6935005,9.437392,3.659191
1.0256226341589354,5.747151,1.2345608,3.4391408,1.4014976,6.756914,7.761312,4.1906,7.076884,3.055997
1.027621898567304,4.998617,-0.12557621,1.4727811,0.58664155,5.862642,4.518738,1.4254432,4.570546,1.7589883
1.029621162917465,3.5489328,-1.7320862,-1.0491275,-0.53024375,4.126772,0.78157663,-1.5904894,1.8519621,-0.3224483
1.0316204273258336,1.4443628,-3.5396779,-4.0442524,-1.8710245,1.8535296,-3.3738456,-4.7919307,-1.0759374,-3.0755315
1.0336196917342022,-1.1123832,-5.4575453,-7.318187,-3.3082702,-0.5353181,-7.806819,-8.07873,-4.1486444,-6.1997685
1.0356189561425708,-3.8261604,-7.3698096,-10.591993,-4.6977377,-2.6258714,-12.320107,-11.332199,-7.2589145,-9.258218
1.0376182204927318,-6.3944116,-9.164221,-13.564659,-5.912822,-4.116522,-16.68714,-14.437241,-10.291037,-11.779981
1.0396174849011004,-8.586823,-10.747758,-15.969578,-6.8689184,-4.894638,-20.674212,-17.286112,-13.142444,-13.378832
1.041616749309469,-10.285805,-12.055417,-17.630894,-7.532469,-5.035275,-24.073137,-19.781973,-15.737128,-13.853745
1.0436160137178376,-11.492337,-13.046311,-18.483177,-7.9110813,-4.7513647,-26.721603,-21.832916,-18.026653,-13.226738
1.0456152780679986,-12.287702,-13.694409,-18.570734,-8.035617,-4.3112307,-28.517014,-23.34898,-19.975231,-11.733501
1.0476145424763672,-12.786951,-13.98421,-18.030243,-7.9423,-3.9509547,-29.426327,-24.25097,-21.55305,-9.753596
1.0496138068847358,-13.080546,-13.904763,-17.044683,-7.655507,-3.8105319,-29.477993,-24.481033,-22.723207,-7.7021112
1.0516130712931044,-13.195133,-13.451437,-15.805373,-7.1839423,-3.8986623,-28.755817,-24.022043,-23.443163,-5.942246
1.0536123356432654,-13.107343,-12.636882,-14.473843,-6.5302277,-4.1367917,-27.382803,-22.916319,-23.682377,-4.6862683
1.055611600051634,-12.761201,-11.496872,-13.1632395,-5.7037334,-4.3900084,-25.507055,-21.272875,-23.436886,-3.980269
1.0576108644600026,-12.101193,-10.091808,-11.922444,-4.730238,-4.524341,-23.283611,-19.257296,-22.73933,-3.7062533
1.0596101288683712,-11.109986,-8.504003,-10.741764,-3.6560001,-4.446012,-20.860275,-17.067173,-21.6637,-3.6336546
1.0616093932185322,-9.827274,-6.8300495,-9.569814,-2.5449529,-4.12214,-18.363203,-14.896288,-20.314978,-3.4958138
1.0636086576269008,-8.3374195,-5.1647944,-8.335355,-1.4628619,-3.5582066,-15.886741,-12.895539,-18.805784,-3.0579731
1.0656079220352694,-6.7554364,-3.5903409,-6.9768434,-0.46560842,-2.7905343,-13.486244,-11.144936,-17.234804,-2.1769395
1.067607186443638,-5.19258,-2.1662874,-5.465729,0.41135195,-1.8559688,-11.175892,-9.642546,-15.66267,-0.8371951
1.069606450793799,-3.7338958,-0.92540437,-3.8214052,1.155906,-0.782621,-8.934693,-8.313865,-14.104934,0.8505054
1.0716057152021676,-2.4189165,0.123096496,-2.1232352,1.7701821,0.40396196,-6.7192082,-7.039066,-12.527945,2.6562347
1.0736049796105362,-1.2522882,0.99152666,-0.47692117,2.2617738,1.6532995,-4.473145,-5.6845093,-10.864694,4.301784
1.0756042440189049,-0.21381907,1.706828,1.0121602,2.6329029,2.8714654,-2.1405768,-4.135148,-9.032537,5.5233793
1.0776035083690658,0.7294974,2.3056746,2.2677543,2.8751566,3.918615,0.32056174,-2.3151197,-6.950293,6.119175
1.0796027727774344,1.6013932,2.8300166,3.2815309,2.9749641,4.6195784,2.9329162,-0.19571276,-4.5608406,6.018144
1.081602037185803,2.4180064,3.324262,4.1188016,2.923328,4.8128595,5.695952,2.208954,-1.8418971,5.2994027
1.0836013015941717,3.193705,3.8341887,4.9084773,2.7306678,4.3995285,8.585709,4.8563457,1.1901902,4.185683
1.0856005660025403,3.9459145,4.40069,5.805517,2.4336145,3.391909,11.556757,7.684999,4.4771953,2.9911487
1.0875998303527012,4.6978307,5.0531693,6.9428043,2.0941145,1.9372454,14.541733,10.620477,7.9202175,2.051288
1.0895990947610699,5.4834166,5.8070083,8.391352,1.791388,0.30024502,17.45931,13.579662,11.394361,1.6454661
1.0915983591694385,6.3342757,6.653974,10.127942,1.6007288,-1.1919253,20.218105,16.465658,14.755827,1.9206045
1.093597623577807,7.2632666,7.5596833,12.032828,1.571993,-2.2434466,22.722616,19.16529,17.854424,2.855925
1.095596887927968,8.255426,8.46534,13.919911,1.7164327,-2.6570346,24.881792,21.550682,20.54852,4.2790475
1.0975961523363367,9.266016,9.2927,15.559415,2.0007136,-2.383395,26.614391,23.48896,22.723015,5.8799014
1.0995954167447053,10.207483,9.947074,16.725183,2.3476071,-1.5460176,27.848068,24.85023,24.291304,7.2971444
1.101594681153074,10.974274,10.334472,17.251135,2.660727,-0.38507652,28.527458,25.528137,25.205175,8.224216
1.1035939455032349,11.460963,10.373943,17.054369,2.8457987,0.8202878,28.613358,25.454546,25.455942,8.475147
1.1055932099116035,11.582027,10.00911,16.152277,2.8335838,1.833457,28.082865,24.609793,25.06985,8.04367
1.107592474319972,11.298792,9.227449,14.67331,2.6014607,2.527631,26.943073,23.035282,24.108593,7.124978
1.1095917387283407,10.604288,8.05347,12.818882,2.1689808,2.8869543,25.225464,20.819195,22.643856,6.0462594
1.1115910030785017,9.537275,6.554419,10.82774,1.5956372,2.999118,22.990517,18.089962,20.754793,5.1805863
1.1135902674868703,8.165346,4.833807,8.928591,0.96356726,2.981883,20.33396,15.005319,18.52291,4.833485
1.115589531895239,6.56827,3.0134947,7.2794046,0.35409334,2.933967,17.366526,11.725726,16.017807,5.129551
1.1175887963036075,4.8331666,1.2213807,5.9368696,-0.16626261,2.9037695,14.205908,8.40209,13.302976,5.962779
1.1195880606537685,3.0545735,-0.4216917,4.850081,-0.5574869,2.881111,10.960549,5.1649256,10.447712,7.0138135
1.121587325062137,1.3388276,-1.8168586,3.8761132,-0.80729824,2.8408358,7.7129145,2.1168425,7.534765,7.8370094
1.1235865894705057,-0.19521007,-2.8930216,2.8413453,-0.9232388,2.7849612,4.516487,-0.66516125,4.668334,7.99792
1.1255858538788743,-1.409064,-3.6090176,1.598325,-0.9240384,2.7700522,1.4045597,-3.1182911,1.9839677,7.200065
1.1275851182290353,-2.1951034,-3.965633,0.07421126,-0.8401564,2.8718197,-1.6022447,-5.195488,-0.3821579,5.3855963
1.129584382637404,-2.487303,-3.9995515,-1.7026024,-0.7052988,3.165235,-4.4775577,-6.8579373,-2.3098645,2.7423234
1.1315836470457725,-2.3056035,-3.7857072,-3.6155121,-0.56090957,3.644286,-7.180554,-8.080714,-3.7304811,-0.36183962
1.1335829114541411,-1.78296,-3.4311445,-5.5003285,-0.45632055,4.1747828,-9.658549,-8.864817,-4.6621156,-3.4833367
1.135582175804302,-1.1499336,-3.0596578,-7.197657,-0.44195065,4.509285,-11.858229,-9.247811,-5.216805,-6.226215
1.1375814402126707,-0.6893768,-2.7902408,-8.600028,-0.55730677,4.3440633,-13.745225,-9.309907,-5.5825186,-8.324211
1.1395807046210393,-0.6795521,-2.7186987,-9.672485,-0.8202533,3.4192479,-15.32649,-9.17734,-5.995183,-9.671932
1.141579969029408,-1.3054821,-2.89367,-10.448276,-1.2107946,1.6361417,-16.657677,-9.005483,-6.6736903,-10.298227
1.143579233379569,-2.5934193,-3.3057876,-11.003352,-1.6689477,-0.8699981,-17.837547,-8.951727,-7.7603636,-10.310091
1.1455784977879375,-4.4154024,-3.894319,-11.414156,-2.1077158,-3.7539165,-18.98102,-9.146125,-9.288149,-9.836219
1.1475777621963061,-6.4876757,-4.5523057,-11.724985,-2.4266028,-6.519125,-20.179672,-9.654806,-11.154573,-8.979992
1.1495770266046748,-8.457525,-5.159629,-11.940858,-2.54385,-8.660663,-21.468126,-10.468108,-13.152511,-7.8280983
1.1515762909548357,-9.970838,-5.600855,-12.023563,-2.4118266,-9.78606,-22.793772,-11.492568,-15.005493,-6.4595885
1.1535755553632043,-10.762482,-5.792396,-11.909634,-2.0316412,-9.718779,-24.014898,-12.575445,-16.44351,-4.9537773
1.155574819771573,-10.698757,-5.6920023,-11.53576,-1.447115,-8.512715,-24.924988,-13.53491,-17.254354,-3.399137
1.1575740841799416,-9.787876,-5.300131,-10.846586,-0.7286277,-6.41522,-25.289717,-14.196093,-17.326885,-1.8665507
1.1595733485301025,-8.165901,-4.660227,-9.822721,0.042398572,-3.7753377,-24.908142,-14.432178,-16.675793,-0.40549022
1.1615726129384711,-6.061481,-3.8453705,-8.475487,0.7909091,-0.96284837,-23.652285,-14.179074,-15.425003,0.9770158
1.1635718773468398,-3.725617,-2.9438279,-6.8549304,1.4586897,1.7163457,-21.498695,-13.4355345,-13.763089,2.2773533
1.1655711417552084,-1.4307414,-2.0542293,-5.0460777,1.9933741,4.0038633,-18.529345,-12.252564,-11.9092245,3.4777389
1.1675704061053693,0.5850798,-1.2656748,-3.1595132,2.3513827,5.713139,-14.912552,-10.706662,-10.051414,4.5095925
1.169569670513738,2.1269565,-0.64845455,-1.3076739,2.4921634,6.6941104,-10.859146,-8.876048,-8.316025,5.262084
1.1715689349221066,3.063025,-0.2427617,0.40153682,2.3817797,6.829522,-6.5894613,-6.828467,-6.749434,5.5975866
1.1735681993304752,3.3437543,-0.049256142,1.9033518,2.0088668,6.0694323,-2.2980921,-4.6181684,-5.327893,5.4371552
1.1755674636806361,3.0148323,-0.027287183,3.1812906,1.3976185,4.471613,1.8579098,-2.2963936,-3.9805236,4.802807
1.1775667280890048,2.2236292,-0.10204659,4.2644677,0.6180093,2.2393558,5.7594056,0.07711709,-2.6193004,3.8496172
1.1795659924973734,1.2048317,-0.17315996,5.216512,-0.21288833,-0.2676528,9.319272,2.4303575,-1.168339,2.845533
1.181565256905742,0.236463,-0.13536367,6.1150284,-0.9511714,-2.5944757,12.476482,4.6811805,0.41402903,2.0988233
1.183564521255903,-0.42398766,0.09733246,7.002588,-1.4585898,-4.286882,15.185596,6.748337,2.1241937,1.8130034
1.1855637856642716,-0.58324593,0.5837009,7.880892,-1.6294416,-5.0061173,17.428812,8.5778885,3.9303017,2.0504203
1.1875630500726402,-0.15232623,1.3520682,8.720383,-1.4102706,-4.613848,19.228285,10.166307,5.793186,2.6876354
1.1895623144810088,0.82226366,2.3900237,9.467602,-0.81919813,-3.2430863,20.643095,11.557417,7.6738677,3.4668407
1.1915615788311698,2.1919394,3.658471,10.086203,0.0727511,-1.2276806,21.763624,12.83448,9.54699,4.1165996
1.1935608432395384,3.7533715,5.0982065,10.583019,1.1583997,0.9617868,22.693506,14.097542,11.408731,4.456217
1.195560107647907,5.311227,6.635362,11.017298,2.3222995,2.8751743,23.519247,15.4227495,13.26007,4.4973035
1.1975593720562756,6.713026,8.183869,11.488892,3.4617553,4.192267,24.284216,16.831026,15.086523,4.440789
1.1995586364646442,7.8834257,9.647438,12.101088,4.497693,4.7976756,24.975285,18.269423,16.843164,4.592851
1.2015579008148052,8.8159895,10.918314,12.9152775,5.3738003,4.7900605,25.519224,19.607744,18.437918,5.24584
1.2035571652231738,9.549672,11.887615,13.922296,6.0536513,4.4338956,25.80742,20.663784,19.733969,6.5498824
1.2055564296315424,10.126561,12.450934,15.024196,6.509415,4.052606,25.722221,21.234426,20.559322,8.427405
1.207555694039911,10.548005,12.519503,16.04596,6.710221,3.8937283,25.164783,21.136518,20.733881,10.568374
1.209554958390072,10.768251,12.039143,16.770006,6.6322207,4.079331,24.072426,20.24214,20.10267,12.522415
1.2115542227984406,10.637564,10.9822855,16.970533,6.2418537,4.484082,22.417208,18.492928,18.552727,13.798603
1.2135534872068092,9.975132,9.368684,16.45795,5.520481,4.827232,20.195673,15.913672,16.056482,14.007679
1.2155527516151778,8.615002,7.2652454,15.108028,4.4744577,4.753389,17.415815,12.609881,12.695288,12.950285
1.2175520159653388,6.4472733,4.779357,12.879565,3.135689,3.9179964,14.089703,8.752625,8.656077,10.659126
1.2195512803737074,3.5233104,2.0666125,9.823962,1.5846189,2.193363,10.235973,4.5654855,4.2371273,7.376958
1.221550544782076,0.10304978,-0.6773481,6.083066,-0.05280727,-0.26650682,5.901042,0.3078713,-0.17709194,3.5012476
1.2235498091904446,-3.3599901,-3.2348711,1.8776815,-1.6150528,-2.9979699,1.175195,-3.7525651,-4.168678,-0.5013136
1.2255490735406056,-6.256755,-5.3829036,-2.4998097,-2.9200933,-5.2978435,-3.7845757,-7.3607826,-7.3372803,-4.165162
1.2275483379489742,-7.9819136,-6.9341197,-6.7195344,-3.8061314,-6.433467,-8.75592,-10.308584,-9.386108,-7.0970283
1.2295476023573428,-8.089448,-7.7723126,-10.45468,-4.168907,-5.8438196,-13.47335,-12.462532,-10.180236,-9.041795
1.2315468667657115,-6.4753428,-7.8887987,-13.421465,-4.0032897,-3.4034219,-17.656963,-13.784463,-9.79713,-9.921532
1.2335461311158724,-3.4575973,-7.397253,-15.442125,-3.4181,0.5052813,-21.069523,-14.341497,-8.5271845,-9.856395
1.235545395524241,0.24533524,-6.516008,-16.463356,-2.6236517,5.0059195,-23.550745,-14.286357,-6.819966,-9.1309805
1.2375446599326096,3.6587937,-5.533509,-16.578087,-1.8932707,8.931175,-25.054005,-13.832053,-5.203165,-8.14623
1.2395439243409783,5.7967725,-4.742529,-16.00718,-1.4965764,11.130155,-25.650549,-13.204917,-4.158884,-7.3202777
1.2415431886911392,5.9638863,-4.365495,-15.047348,-1.620245,10.837479,-25.509556,-12.59429,-4.003454,-6.9794755
1.2435424530995078,3.9515984,-4.505656,-14.013269,-2.3189664,7.8863277,-24.859198,-12.118925,-4.815196,-7.278814
1.2455417175078765,0.12266521,-5.1246266,-13.180343,-3.4938903,2.7989893,-23.948658,-11.812231,-6.4198637,-8.161227
1.247540981916245,-4.6685023,-6.0493283,-12.727675,-4.9094057,-3.3232381,-22.991396,-11.622868,-8.431436,-9.392499
1.249540246266406,-9.355856,-7.03513,-12.704361,-6.2705727,-9.187869,-22.125011,-11.446068,-10.369869,-10.631704
1.2515395106747746,-12.946906,-7.826079,-13.034815,-7.2938433,-13.633104,-21.390902,-11.155824,-11.780782,-11.55625
1.2535387750831433,-14.819021,-8.227746,-13.546243,-7.7924995,-15.987367,-20.734173,-10.646754,-12.360025,-11.959614
1.2555380394915119,-14.834662,-8.133621,-13.98055,-7.69902,-16.174984,-20.00805,-9.844527,-11.997688,-11.772198
1.2575373038416728,-13.359461,-7.558696,-14.086899,-7.0915112,-14.704843,-19.026718,-8.733378,-10.805583,-11.125023
1.2595365682500415,-11.0622425,-6.591352,-13.641727,-6.1282077,-12.3929615,-17.59237,-7.331914,-9.03748,-10.196868
1.26153583265841,-8.639357,-5.3571253,-12.489962,-4.9895964,-10.030895,-15.545145,-5.681411,-6.9930806,-9.163632
1.2635350970667787,-6.567008,-3.969048,-10.586134,-3.8125854,-8.077601,-12.810291,-3.8313847,-4.9198837,-8.108818
1.2655343614169396,-4.965512,-2.489764,-7.9764524,-2.6477432,-6.531865,-9.408703,-1.819179,-2.9436123,-6.960604
1.2675336258253083,-3.573379,-0.9296404,-4.808489,-1.462313,-4.9715276,-5.468299,0.32690316,-1.0384337,-5.53814
1.2695328902336769,-1.9022248,0.737105,-1.2764801,-0.17320247,-2.7796504,-1.1938826,2.5827522,0.92776597,-3.5913575
1.2715321546420455,0.5063717,2.5231166,2.394842,1.2853982,0.5304886,3.1649933,4.906517,3.103312,-0.93917686
1.2735314189922065,3.8835633,4.3927565,5.9774904,2.90779,5.0538526,7.3588066,7.228263,5.5732546,2.4339283
1.275530683400575,8.054818,6.2235546,9.251059,4.571799,10.339729,11.170689,9.431323,8.27362,6.3052235
1.2775299478089437,12.43997,7.8174443,12.021534,6.052076,15.460271,14.45061,11.364819,10.9696,10.226882
1.2795292122173123,16.173086,8.928941,14.1147175,7.063803,19.237844,17.113628,12.857766,13.291514,13.591552
1.2815284765674733,18.353973,9.337679,15.392358,7.3469086,20.582579,19.138304,13.762905,14.837623,15.772273
1.2835277409758419,18.29685,8.90812,15.764648,6.748415,18.841808,20.537373,13.985115,15.276959,16.283436
1.2855270053842105,15.725749,7.6390195,15.204142,5.271763,13.955478,21.336866,13.511308,14.459243,14.885128
1.2875262697925791,10.920926,5.6943636,13.775886,3.1117764,6.587023,21.563059,12.427546,12.489197,11.678712
1.28952553414274,4.6018453,3.3557823,11.640134,0.595051,-2.1260715,21.233772,10.888826,9.6834345,7.098358
1.2915247985511087,-2.2069342,0.96943164,9.040596,-1.8826885,-10.7795725,20.363848,9.086153,6.5096617,1.8222446
1.2935240629594773,-8.468396,-1.1516023,6.271023,-3.9696293,-18.103691,18.975496,7.187604,3.4400647,-3.3592443
1.295523327367846,-13.35012,-2.7920365,3.617524,-5.4289856,-23.192858,17.116959,5.3034544,0.84336424,-7.716924
1.2975225917180069,-16.439714,-3.8864045,1.314771,-6.19297,-25.705097,14.868946,3.459369,-1.1234491,-10.703676
1.2995218561263755,-17.752926,-4.501324,-0.48664463,-6.3444576,-25.835714,12.348432,1.6175911,-2.5064898,-12.033021
1.3015211205347441,-17.64893,-4.77812,-1.7199005,-6.054058,-24.150919,9.71091,-0.2705686,-3.4950838,-11.687411
1.3035203849431127,-16.65551,-4.8661075,-2.3883033,-5.5104,-21.388948,7.1266775,-2.219741,-4.3187943,-9.880534
1.3055196492932737,-15.230821,-4.8407426,-2.5269117,-4.8336596,-18.18431,4.766817,-4.155264,-5.120318,-6.978333
1.3075189137016423,-13.619067,-4.68003,-2.1794486,-4.0479655,-14.917093,2.7720103,-5.915072,-5.899144,-3.4234688
1.309518178110011,-11.7926655,-4.2755003,-1.3994921,-3.0913723,-11.669891,1.2240052,-7.2764072,-6.495055,0.32887977
1.3115174425183795,-9.583302,-3.5125406,-0.27412364,-1.8895694,-8.343485,0.11637311,-8.043183,-6.6952314,3.837061
1.3135167068685405,-6.7714076,-2.3304424,1.0519148,-0.4135016,-4.7630095,-0.6427943,-8.1065235,-6.303956,6.6965
1.3155159712769091,-3.2914155,-0.79213595,2.358936,1.2563399,-0.85036874,-1.2223036,-7.506218,-5.259794,8.57615
1.3175152356852777,0.6713808,0.8998644,3.3567548,2.9165025,3.2730887,-1.8253536,-6.435385,-3.6836975,9.238143
1.3195145000936463,4.6695094,2.4397583,3.7425456,4.274271,7.258404,-2.6365342,-5.1945324,-1.8557521,8.5668335
1.321513764502015,8.122713,3.5061204,3.278214,5.029843,10.630799,-3.7622516,-4.100217,-0.12731728,6.5922046
1.323513028852176,10.484629,3.8566241,1.8828807,4.971411,12.928618,-5.1868234,-3.395706,1.1852084,3.5482054
1.3255122932605445,11.400321,3.3956802,-0.33411694,4.0368667,13.830099,-6.775037,-3.1888707,1.8765937,-0.19609831
1.3275115576689132,10.832275,2.217355,-3.0482454,2.3548424,13.274569,-8.289559,-3.4239535,1.9156159,-4.12759
1.3295108220772818,9.041459,0.56364965,-5.801565,0.20624082,11.462553,-9.4671,-3.9280212,1.4124951,-7.705464
1.3315100864274427,6.4631233,-1.2449353,-8.109851,-2.0487084,8.777726,-10.089058,-4.4812584,0.5452014,-10.437758
1.3335093508358113,3.6145706,-2.884697,-9.58966,-4.0480447,5.7117424,-10.045628,-4.883269,-0.48380572,-11.959144
1.33550861524418,0.9117665,-4.1171494,-10.051206,-5.5217247,2.7049804,-9.373268,-5.0225015,-1.5311986,-12.116824
1.3375078796525486,-1.4171786,-4.826208,-9.550316,-6.337588,0.063114,-8.2458315,-4.888381,-2.5235987,-11.000104
1.3395071440027095,-3.3260326,-5.0177727,-8.35526,-6.5077963,-2.0819662,-6.9224586,-4.5498567,-3.4366755,-8.933768
1.3415064084110782,-4.901461,-4.7931094,-6.871888,-6.164711,-3.7632782,-5.685108,-4.116059,-4.2606726,-6.4236217
1.3435056728194468,-6.2667575,-4.2970924,-5.5127716,-5.503413,-5.1098976,-4.766154,-3.686656,-4.9662294,-4.038902
1.3455049372278154,-7.5066032,-3.6747944,-4.590161,-4.725762,-6.262374,-4.297603,-3.3248355,-5.4991946,-2.2929652
1.3475042015779763,-8.604808,-3.0408385,-4.2550874,-3.9919379,-7.2929354,-4.2997365,-3.0508628,-5.7876444,-1.5155468
1.349503465986345,-9.44947,-2.4649863,-4.4725633,-3.3935685,-8.156398,-4.689832,-2.8544767,-5.776542,-1.7644746
1.3515027303947136,-9.913683,-1.9862748,-5.0524683,-2.9624243,-8.753998,-5.3117766,-2.722508,-5.478797,-2.7987726
1.3535019948030822,-9.870656,-1.6110232,-5.7306895,-2.6725993,-8.918457,-5.9799113,-2.646078,-4.9609675,-4.1549315
1.3555012591532432,-9.284167,-1.3353697,-6.247271,-2.4784768,-8.53621,-6.5153275,-2.6296535,-4.3518996,-5.2812514
1.3575005235616118,-8.228216,-1.1521983,-6.411243,-2.3377492,-7.604374,-6.772853,-2.6815944,-3.8060632,-5.693272
1.3594997879699804,-6.87584,-1.0488495,-6.1317806,-2.22604,-6.2700877,-6.6538343,-2.7927873,-3.4526212,-5.1284366
1.361499052378349,-5.470877,-1.0090904,-5.417402,-2.1422834,-4.8268747,-6.1137557,-2.9284697,-3.3709273,-3.5982912
1.36349831672851,-4.296025,-1.0111911,-4.343087,-2.101769,-3.6613302,-5.1616545,-3.0290315,-3.577922,-1.3731893
1.3654975811368786,-3.5673022,-1.0143569,-3.0015376,-2.1064894,-3.1178544,-3.848245,-3.0115032,-4.0152793,1.1380037
1.3674968455452472,-3.4300447,-0.97014016,-1.484175,-2.1399336,-3.4369652,-2.264333,-2.7993283,-4.596081,3.528929
1.3694961099536158,-3.8784606,-0.8177487,0.11543798,-2.1472366,-4.6107464,-0.5290932,-2.3345006,-5.2027874,5.479806
1.3714953743037768,-4.785944,-0.5010988,1.7306042,-2.0505507,-6.432693,1.2287517,-1.5990025,-5.7327423,6.8752155
1.3734946387121454,-5.885476,0.021869803,3.267558,-1.7591337,-8.456937,2.8729358,-0.6220036,-6.090758,7.7262673
1.375493903120514,-6.842043,0.7584222,4.618761,-1.2076101,-10.147731,4.2830043,0.5207786,-6.20691,8.118611
1.3774931675288826,-7.3426743,1.6642927,5.6704493,-0.3852247,-11.025532,5.366413,1.7124927,-6.0490813,8.131485
1.3794924318790436,-7.140637,2.6468341,6.3316336,0.65769523,-10.732098,6.0657887,2.8108938,-5.6137366,7.7789917
1.3814916962874122,-6.173074,3.5658288,6.584739,1.8004754,-9.199092,6.376907,3.6639874,-4.950447,7.0628304
1.3834909606957808,-4.577552,4.2567115,6.4904904,2.8775442,-6.6276917,6.334172,4.1277003,-4.158945,5.9934444
1.3854902251041494,-2.6862512,4.5548325,6.1748524,3.7052116,-3.460398,6.0021834,4.0785313,-3.3948038,4.6237135
1.3874894894543104,-0.9068378,4.3524017,5.805769,4.139538,-0.23621373,5.470016,3.4528527,-2.8130112,3.1212769
1.389488753862679,0.34848878,3.6070542,5.4987984,4.091387,2.5201883,4.8085623,2.245285,-2.560944,1.6771814
1.3914880182710476,0.7972046,2.3663216,5.2799172,3.5518143,4.4209123,4.0500484,0.5223623,-2.7267058,0.48004916
1.3934872826794162,0.40176436,0.77208936,5.061467,2.5967073,5.3182817,3.1925917,-1.5693794,-3.288265,-0.3838123
1.3954865470295772,-0.6171911,-0.964552,4.6765075,1.3742976,5.323525,2.1953247,-3.8249965,-4.1179895,-0.91525906
1.3974858114379458,-1.8235432,-2.59545,3.943067,0.079919234,4.7719927,1.0128704,-6.002435,-4.9929905,-1.2083577
1.3994850758463144,-2.710169,-3.8809853,2.7625034,-1.082126,4.0644274,-0.36264676,-7.8514686,-5.6490583,-1.35609
1.401484340254683,-2.8479278,-4.6330705,1.1762948,-1.9318515,3.5686467,-1.8731431,-9.154218,-5.8430424,-1.3954732
1.403483604604844,-2.0094485,-4.746867,-0.6220014,-2.3430777,3.5172687,-3.3776453,-9.752545,-5.413269,-1.2745281
1.4054828690132126,-0.23459242,-4.2116647,-2.3439186,-2.2615724,3.9609032,-4.666174,-9.565843,-4.314408,-0.8966817
1.4074821334215812,2.1856635,-3.1122293,-3.6923556,-1.7178464,4.753958,-5.5045295,-8.600235,-2.6192923,-0.20027684
1.4094813978299499,4.798787,-1.609481,-4.4634457,-0.8182217,5.6475387,-5.695413,-6.9440837,-0.5048443,0.7340243
1.4114806621801108,7.1554723,0.099003755,-4.608177,0.2848465,6.410869,-5.141603,-4.7510023,1.8036636,1.6764524
1.4134799265884794,8.927216,1.8111395,-4.2266498,1.4174823,6.8757696,-3.8692842,-2.2096214,4.0886045,2.2644768
1.415479190996848,9.968692,3.3511705,-3.5166745,2.4185205,6.98577,-2.0387788,0.47728127,6.171242,2.1549802
1.4174784554052167,10.322474,4.593134,-2.6770167,3.168597,6.784734,0.10504452,3.1200092,7.9309373,1.1729665
1.4194777197553776,10.169129,5.4697666,-1.8431091,3.6034591,6.371393,2.288085,5.564524,9.321183,-0.6176792
1.4214769841637462,9.723095,5.963764,-1.0669309,3.711133,5.838457,4.2646117,7.695984,10.341017,-2.907081
1.4234762485721149,9.13099,6.090652,-0.32469875,3.512921,5.193912,5.8697,9.44204,11.015305,-5.226865
1.4254755129804835,8.462106,5.900408,0.441349,3.0625823,4.41373,7.0483084,10.777758,11.389729,-7.092649
1.4274747773306444,7.7111044,5.454675,1.2473869,2.422075,3.4477127,7.83182,11.711693,11.521689,-8.182511
1.429474041739013,6.829136,4.824386,2.058791,1.6557477,2.2698646,8.321972,12.279644,11.467288,-8.387098
1.4314733061473817,5.77854,4.078783,2.787234,0.82254297,0.89414984,8.629759,12.527866,11.280903,-7.80361
1.4334725705557503,4.5810766,3.2910619,3.3462653,-0.015393129,-0.59235364,8.860419,12.512806,11.019839,-6.6247573
1.4354718349059112,3.2980769,2.5138142,3.6700897,-0.80882925,-2.0694096,9.057867,12.272375,10.712978,-5.0558286
1.4374710993142799,2.0367205,1.7881017,3.752396,-1.5105642,-3.377414,9.213765,11.832276,10.37361,-3.2383242
1.4394703637226485,0.9332334,1.1379311,3.6461256,-2.0786824,-4.34195,9.272483,11.202612,9.993958,-1.221241
1.441469628131017,0.10338251,0.5618153,3.4008503,-2.4900293,-4.7989545,9.139797,10.373641,9.538399,0.91663325
1.4434688925393857,-0.3572458,0.050017707,3.0469258,-2.7310708,-4.592227,8.7262125,9.336905,8.96671,3.0171914
1.4454681568895467,-0.39488426,-0.40984395,2.581595,-2.799887,-3.6211548,7.9731174,8.094766,8.239413,4.817849
1.4474674212979153,0.0031437397,-0.82039994,1.9615881,-2.6996596,-1.8428185,6.871624,6.6735563,7.332965,5.9532385
1.449466685706284,0.7634112,-1.178582,1.1591771,-2.4496078,0.5923484,5.4804845,5.129147,6.237208,6.091163
1.4514659501146525,1.6791062,-1.4825299,0.19400959,-2.086479,3.3289008,3.9079905,3.5328069,4.936929,5.057823
1.4534652144648135,2.4770901,-1.7373623,-0.8519544,-1.6630598,5.851664,2.2758465,1.9577713,3.4286065,2.9370537
1.455464478873182,2.8204181,-1.9609674,-1.8306676,-1.2462229,7.555844,0.6955856,0.46081665,1.7039955,0.11251188
1.4574637432815507,2.4049644,-2.1957505,-2.6057248,-0.91795886,7.9091005,-0.7826926,-0.94278204,-0.23875967,-2.8717954
1.4594630076899193,1.0846088,-2.48127,-3.0771358,-0.7431851,6.6500683,-2.1723998,-2.2705972,-2.3667302,-5.399625
1.4614622720400803,-1.0570912,-2.848423,-3.254944,-0.7576564,3.9165921,-3.5547323,-3.5723014,-4.6079984,-6.993836
1.463461536448449,-3.6900227,-3.2964146,-3.2460716,-0.95224774,0.22631651,-5.0354376,-4.8975477,-6.8364477,-7.422011
1.4654608008568175,-6.292312,-3.78198,-3.2248275,-1.2634484,-3.6000478,-6.6966467,-6.2712293,-8.890925,-6.730103
1.4674600652651861,-8.267431,-4.218012,-3.3614929,-1.5836636,-6.6709185,-8.550935,-7.6643457,-10.585623,-5.1971607
1.469459329615347,-9.159007,-4.5013633,-3.7536378,-1.7928628,-8.302246,-10.509732,-8.994634,-11.770886,-3.2169895
1.4714585940237157,-8.755988,-4.536759,-4.3921485,-1.7856771,-8.167369,-12.402714,-10.141213,-12.359707,-1.1926441
1.4734578584320843,-7.202025,-4.2712283,-5.1453032,-1.5067708,-6.4303784,-14.001952,-10.9755335,-12.360969,0.57590485
1.475457122840453,-4.917704,-3.7083464,-5.8125663,-0.96027124,-3.6044936,-15.092051,-11.4033375,-11.872747,1.9026777
1.477456387190614,-2.4890149,-2.9130485,-6.183626,-0.21048565,-0.4028654,-15.517764,-11.392832,-11.062391,2.7290795
1.4794556515989825,-0.5592135,-2.0189152,-6.126204,0.6107593,2.388488,-15.236524,-11.005492,-10.153202,3.0590892
1.4814549160073511,0.41499808,-1.1761451,-5.608781,1.3585466,4.1937437,-14.322253,-10.370036,-9.34279,2.949108
1.4834541804157197,0.2054216,-0.5381696,-4.729812,1.8866404,4.6790366,-12.9547415,-9.66607,-8.798418,2.4771938
1.4854534447658807,-1.1117244,-0.21470161,-3.680481,2.091394,3.8177695,-11.3758745,-9.068595,-8.598106,1.7482198
1.4874527091742493,-3.1851852,-0.23930122,-2.6784503,1.9414124,1.8651727,-9.829859,-8.694601,-8.710555,0.90200126
1.489451973582618,-5.4939723,-0.5641618,-1.9173397,1.4858453,-0.7027796,-8.524377,-8.580243,-9.016552,0.09091761
1.4914512379909866,-7.4257174,-1.0485936,-1.4807343,0.8655271,-3.2455873,-7.5767326,-8.655107,-9.306226,-0.4759135
1.4934505023411475,-8.400654,-1.4957166,-1.3551152,0.27707353,-5.0616975,-7.010885,-8.766391,-9.320171,-0.65257674
1.4954497667495161,-8.022388,-1.7048901,-1.4252255,-0.07605401,-5.547447,-6.7609954,-8.729798,-8.831779,-0.344843
1.4974490311578847,-6.1530843,-1.52811,-1.5452002,-0.04624248,-4.3336945,-6.7005363,-8.383261,-7.6929283,0.38006505
1.4994482955662534,-2.970865,-0.9141372,-1.5809361,0.4124898,-1.4363041,-6.6731534,-7.6331944,-5.8846965,1.3436098
1.5014475599164143,1.016209,0.053478252,-1.4717364,1.2050306,2.6662476,-6.5391283,-6.496688,-3.5532978,2.2482636
1.503446824324783,5.076635,1.1832708,-1.2424414,2.1199281,7.0946593,-6.2006073,-5.084762,-0.969224,2.7855337
1.5054460887331516,8.442595,2.2379076,-0.95829475,2.896322,10.793943,-5.605052,-3.5619895,1.5485387,2.7636395
1.5074453531415202,10.493671,3.006039,-0.6871594,3.3063233,12.81199,-4.7429967,-2.0889971,3.722639,2.2010095
1.5094446174916811,10.927634,3.3754103,-0.4411225,3.2324364,12.600673,-3.6315138,-0.77096266,5.3945713,1.3335102
1.5114438819000497,9.873212,3.3756862,-0.14417036,2.7178426,10.19925,-2.2885199,0.38376397,6.5908794,0.5854135
1.5134431463084184,7.821963,3.160801,0.34949815,1.9455593,6.218492,-0.7203647,1.4545507,7.4933853,0.4300416
1.515442410716787,5.47769,2.9390032,1.1749469,1.1634957,1.6516012,1.0595881,2.5589702,8.35825,1.1807412
1.517441675066948,3.5400913,2.8922143,2.3900752,0.59321094,-2.4398067,3.0235598,3.8003488,9.425027,2.8681445
1.5194409394753166,2.4686224,3.0893884,3.9053779,0.33269665,-5.2754526,5.102827,5.206368,10.79764,5.1479077
1.5214402038836852,2.3961253,3.4594443,5.4691544,0.32360232,-6.5249705,7.173055,6.705839,12.410336,7.3675094
1.5234394682920538,3.1075194,3.8098805,6.7271366,0.37202618,-6.3610463,9.064065,8.139861,14.033878,8.761677
1.5254387326422147,4.1793556,3.9076786,7.3364825,0.23596266,-5.2770176,10.600538,9.319314,15.359958,8.688617
1.5274379970505834,5.154165,3.5714831,7.08207,-0.2767817,-3.867761,11.644415,10.090802,16.11311,6.844701
1.529437261458952,5.6846366,2.7430453,5.9704723,-1.2276081,-2.6076725,12.143339,10.388723,16.13144,3.3898168
1.5314365258673206,5.634349,1.5180496,4.2308383,-2.5175302,-1.7233243,12.143546,10.259724,15.429681,-1.0820493
1.5334357902174816,5.056348,0.114802524,2.2627466,-3.9218416,-1.2152632,11.779229,9.839429,14.168509,-5.7085943
1.5354350546258502,4.138217,-1.1987528,0.4900283,-5.1679616,-0.9411443,11.21638,9.298196,12.601077,-9.611194
1.5374343190342188,3.1029627,-2.1844294,-0.7427072,-6.0243206,-0.7603176,10.614071,8.784918,10.987834,-12.111332
1.5394335834425874,2.1089444,-2.7146387,-1.2883339,-6.3791947,-0.6345568,10.0528145,8.362195,9.502301,-12.893296
1.5414328477927484,1.2375665,-2.7873542,-1.2020631,-6.254693,-0.6331906,9.529525,8.002793,8.212468,-12.028634
1.543432112201117,0.46043104,-2.5289373,-0.70950675,-5.7959757,-0.9031545,8.95869,7.5918813,7.057774,-9.895484
1.5454313766094856,-0.29996225,-2.139266,-0.11193515,-5.2090683,-1.5671319,8.20963,6.9731655,5.895733,-7.044284
1.5474306410178542,-1.160765,-1.8468337,0.30071563,-4.7051625,-2.6703737,7.1502533,5.9951897,4.5467305,-4.0774393
1.5494299053680152,-2.2186906,-1.8424228,0.32882518,-4.4371386,-4.1227674,5.697427,4.560594,2.8572865,-1.5034429
1.5514291697763838,-3.563663,-2.2582057,-0.12112483,-4.4838395,-5.7623463,3.8304107,2.6434422,0.7231528,0.29761848
1.5534284341847524,-5.2249594,-3.136204,-1.0328094,-4.8375483,-7.3774734,1.5992516,0.30310524,-1.8677051,1.1248435
1.555427698593121,-7.1385784,-4.4244704,-2.311908,-5.4126453,-8.721472,-0.895179,-2.3336911,-4.8377233,0.9658315
1.5574269630014896,-9.13132,-5.9789724,-3.8063014,-6.070624,-9.5950575,-3.5009856,-5.0778704,-8.00656,-0.0034282254
1.5594262273516506,-10.9842,-7.603179,-5.333568,-6.660975,-9.890431,-6.049304,-7.7265997,-11.151103,-1.4290323
1.5614254917600192,-12.43278,-9.068186,-6.7138357,-7.0423536,-9.568859,-8.370109,-10.083704,-14.027149,-2.863913
1.5634247561683878,-13.266108,-10.161786,-7.7697077,-7.112385,-8.698553,-10.311231,-11.99623,-16.427746,-3.8149793
1.5654240205767564,-13.408459,-10.73767,-8.377863,-6.8371954,-7.4507957,-11.769984,-13.385129,-18.237133,-3.9215403
1.5674232849269174,-12.9372225,-10.74341,-8.496035,-6.2512264,-6.058648,-12.71712,-14.260453,-19.451855,-3.0565853
1.569422549335286,-12.095737,-10.239864,-8.198834,-5.457463,-4.7906513,-13.225469,-14.723806,-20.188692,-1.434316
1.5714218137436546,-11.168557,-9.365492,-7.6535807,-4.5821114,-3.8402119,-13.455192,-14.933661,-20.627172,0.4523131
1.5734210781520233,-10.38712,-8.291457,-7.0781336,-3.7296524,-3.2549303,-13.628544,-15.059236,-20.947151,1.9851207
1.5754203425021842,-9.840041,-7.167715,-6.6781025,-2.9470842,-2.916473,-13.973219,-15.227785,-21.261314,2.5989382
1.5774196069105528,-9.435264,-6.0759068,-6.566395,-2.2023978,-2.5636425,-14.649813,-15.480989,-21.569279,2.0088441
1.5794188713189214,-8.937686,-5.0143223,-6.720518,-1.3964808,-1.8855405,-15.700796,-15.757845,-21.747484,0.347452
1.58141813572729,-8.134023,-3.9321322,-6.9887395,-0.41879782,-0.6911282,-17.03052,-15.927521,-21.618383,-1.8413326
1.583417400077451,-6.8737245,-2.7640321,-7.1443853,0.80781835,1.0519984,-18.425106,-15.829326,-20.98615,-3.770732
1.5854166644858196,-5.2124257,-1.4957824,-6.977927,2.2609022,3.0966666,-19.610645,-15.34122,-19.728586,-4.6739726
1.5874159288941883,-3.374466,-0.19010131,-6.3841805,3.808969,5.0277443,-20.331089,-14.428258,-17.836008,-4.0623994
1.5894151933025569,-1.6659358,1.0121554,-5.4190116,5.22975,6.379682,-20.417875,-13.1607895,-15.405108,-1.9329736
1.5914144576527178,-0.34295848,1.9407532,-4.27388,6.2791266,6.812258,-19.814638,-11.686233,-12.600504,1.2426296
1.5934137220610864,0.48383486,2.4519153,-3.2143981,6.761765,6.22961,-18.568075,-10.178799,-9.603311,4.6236653
1.595412986469455,0.91719353,2.4879947,-2.4917786,6.5995226,4.846801,-16.800987,-8.781473,-6.555017,7.278207
1.5974122508778237,1.2181256,2.107674,-2.237467,5.861654,3.1209035,-14.6433115,-7.555703,-3.544254,8.4721155
1.5994115152279846,1.6729426,1.4662739,-2.4365554,4.7358093,1.5906447,-12.20311,-6.475716,-0.62225986,7.8587937
1.6014107796363533,2.4716926,0.7679654,-2.9222486,3.470172,0.6883228,-9.545828,-5.4473085,2.169692,5.563975
1.6034100440447219,3.6110651,0.20010823,-3.4370332,2.3005233,0.62292033,-6.7070975,-4.3557787,4.761769,2.1363242
1.6054093084530905,4.858728,-0.13681038,-3.7276769,1.3684442,1.2810789,-3.728524,-3.1247902,7.0379906,-1.6641365
1.6074085728032514,5.8604116,-0.24224915,-3.6123643,0.7043197,2.3175397,-0.6725855,-1.7348076,8.876096,-5.0849023
1.60940783721162,6.267365,-0.21176377,-3.0372372,0.229904,3.2815928,2.3512049,-0.24049006,10.175419,-7.576899
1.6114071016199887,5.8812766,-0.18585521,-2.0702515,-0.18943873,3.783841,5.2005477,1.2576809,10.910817,-8.885356
1.6134063660283573,4.7665653,-0.28288478,-0.8691887,-0.6761074,3.6576533,7.7319775,2.6565742,11.168161,-9.06205
1.6154056303785183,3.2541776,-0.54429793,0.37860575,-1.2826974,3.0205271,9.839147,3.8941653,11.143433,-8.387862
1.6174048947868869,1.8429973,-0.92202634,1.5093932,-1.9712243,2.2290373,11.473668,4.961287,11.082378,-7.234545
1.6194041591952555,1.0641919,-1.2850188,2.4241521,-2.6224964,1.7500927,12.670855,5.9128413,11.230141,-5.9841228
1.621403423603624,1.2640907,-1.4819329,3.088171,-3.0935533,1.9480163,13.522532,6.831218,11.739236,-4.9316144
1.623402687953785,2.5174367,-1.3868358,3.5404649,-3.264752,2.9585075,14.167761,7.803499,12.640549,-4.246093
1.6254019523621537,4.5418396,-0.9638734,3.848777,-3.1059902,4.5610123,14.737792,8.873021,13.809064,-3.998538
1.6274012167705223,6.80637,-0.27196884,4.098692,-2.6785479,6.2729225,15.332265,10.028364,15.0187,-4.1489472
1.629400481178891,8.663638,0.5462999,4.3629913,-2.1229706,7.4739676,15.988289,11.192823,15.9875,-4.576471
1.6313997455290519,9.556496,1.317172,4.693733,-1.6052591,7.624538,16.677399,12.248783,16.465174,-5.094082
1.6333990099374205,9.158828,1.8759508,5.0866227,-1.2681865,6.4686923,17.28672,13.043183,16.262543,-5.5064545
1.635398274345789,7.492195,2.1230497,5.4874763,-1.1789386,4.1415224,17.653082,13.4292145,15.30302,-5.634174
1.6373975387541577,4.9057655,2.0413568,5.7903333,-1.3135246,1.1579543,17.588926,13.291802,13.621965,-5.3710713
1.6393968031043187,1.9260465,1.6745709,5.843957,-1.5875597,-1.7890903,16.914526,12.556267,11.320131,-4.745755
1.6413960675126873,-0.8730867,1.1184089,5.5051503,-1.8798201,-4.019334,15.52052,11.222587,8.561197,-3.8936737
1.643395331921056,-3.0855691,0.46867865,4.6644273,-2.094099,-5.130996,13.391039,9.355364,5.5087805,-3.043859
1.6453945963294245,-4.5772376,-0.1980688,3.326138,-2.184968,-5.142051,10.636081,7.0847363,2.3082204,-2.3883893
1.6473938606795855,-5.4832606,-0.83089525,1.6220239,-2.1591294,-4.438194,7.4812346,4.5932436,-0.91665804,-2.0012293
1.649393125087954,-6.14802,-1.4047301,-0.18984547,-2.0637228,-3.6679218,4.2332735,2.0877666,-4.0719314,-1.7670429
1.6513923894963227,-6.945321,-1.9025202,-1.7753971,-1.948283,-3.4635239,1.214653,-0.23409109,-7.075909,-1.3887146
1.6533916539046913,-8.117214,-2.2985215,-2.7943854,-1.8281742,-4.205779,-1.3061336,-2.2161055,-9.849402,-0.43885586
1.6553909182548523,-9.65054,-2.5605385,-3.0109305,-1.6739297,-5.8605456,-3.1832373,-3.77494,-12.309242,1.4515553
1.657390182663221,-11.273632,-2.6611152,-2.3719082,-1.4222362,-7.98011,-4.427058,-4.9156456,-14.3730135,4.4293127
1.6593894470715895,-12.546787,-2.6026332,-1.052335,-1.0162674,-9.869772,-5.204602,-5.733808,-15.980935,8.274609
1.6613887114799581,-13.030551,-2.4355855,0.5692015,-0.44109794,-10.820385,-5.8037715,-6.3982306,-17.122847,12.404273
1.663387975830119,-12.460693,-2.2631447,1.9952941,0.24352826,-10.38111,-6.549053,-7.1093845,-17.844404,15.951693
1.6653872402384877,-10.868831,-2.2227345,2.736256,0.9117917,-8.497323,-7.727882,-8.056663,-18.263613,18.010057
1.6673865046468563,-8.6311035,-2.45975,2.439437,1.3862737,-5.6004043,-9.509795,-9.373097,-18.552216,17.876383
1.669385769055225,-6.3109717,-3.061017,0.9919129,1.5159854,-2.400694,-11.894767,-11.0829935,-18.871954,15.272684
1.671385033405386,-4.5505824,-4.0385876,-1.4622334,1.2096204,0.27340883,-14.72477,-13.103416,-19.35539,10.449402
1.6733842978137545,-3.8254051,-5.2921543,-4.542812,0.49272773,1.7715267,-17.70434,-15.238025,-20.031145,4.157809
1.6753835622221231,-4.3025274,-6.6240225,-7.734644,-0.49119547,1.8048371,-20.474138,-17.21575,-20.810093,-2.5571811
1.6773828266304918,-5.8039565,-7.7870626,-10.524787,-1.5139624,0.5259406,-22.7025,-18.75753,-21.512892,-8.579844
1.6793820910388604,-7.858512,-8.539722,-12.515971,-2.321666,-1.550879,-24.15085,-19.631413,-21.905533,-12.999608
1.6813813553890213,-9.867955,-8.711948,-13.509552,-2.707736,-3.7220845,-24.73002,-19.713814,-21.785555,-15.286402
1.68338061979739,-11.279587,-8.247749,-13.520029,-2.5681286,-5.313993,-24.503504,-19.01159,-21.041706,-15.352522
1.6853798842057586,-11.760783,-7.2210507,-12.735985,-1.930705,-5.8928103,-23.65476,-17.657312,-19.700808,-13.505915
1.6873791486141272,-11.230052,-5.8013644,-11.443927,-0.9339181,-5.344195,-22.41379,-15.852716,-17.892784,-10.325654
1.6893784129642881,-9.867748,-4.217541,-9.945174,0.20776019,-3.881347,-20.992033,-13.818943,-15.825248,-6.516897
1.6913776773726568,-7.9824476,-2.6795182,-8.470416,1.2795057,-1.9273348,-19.50409,-11.716059,-13.679904,-2.7541907
1.6933769417810254,-5.9094234,-1.3362292,-7.1476097,2.1133094,0.027002674,-17.93934,-9.6088085,-11.555517,0.39935946
1.695376206189394,-3.8862486,-0.2449317,-6.009092,2.6278925,1.5975168,-16.187138,-7.464077,-9.428223,2.5365987
1.697375470539555,-2.0101626,0.6272143,-4.995001,2.834205,2.5812588,-14.062159,-5.1759744,-7.1635184,3.4694679
1.6993747349479236,-0.2485335,1.3687135,-4.0098243,2.8118374,3.0036733,-11.40564,-2.6360874,-4.581208,3.2202787
1.7013739993562922,1.4901954,2.0739937,-2.956862,2.661884,3.0222912,-8.145579,0.20738778,-1.5348016,2.0217638
1.7033732637646608,3.2904313,2.8036618,-1.7633355,2.474054,2.8857794,-4.3459053,3.303006,2.0081005,0.30048835
1.7053725281148218,5.1547694,3.5496967,-0.39848974,2.2861109,2.7802439,-0.21210243,6.4848657,5.9219537,-1.3862394
1.7073717925231904,6.98034,4.240488,1.129481,2.086355,2.8056953,3.955221,9.5076,9.929896,-2.451228
1.709371056931559,8.596789,4.765023,2.7656934,1.8248023,2.9390802,7.835634,12.111857,13.674167,-2.4414425
1.7113703213399276,9.80643,5.020721,4.434473,1.4486375,3.0714025,11.1780205,14.102183,16.801453,-1.1192266
1.7133695856900886,10.441589,4.9483643,6.042117,0.9270738,3.0520988,13.857197,15.399568,19.049318,1.4023958
1.7153688500984572,10.440403,4.5671763,7.4781556,0.27712002,2.778611,15.89848,16.071735,20.32563,4.657495
1.7173681145068258,9.862102,3.9778593,8.649325,-0.43213677,2.2347991,17.449652,16.310293,20.717659,7.960926
1.7193673789151944,8.872544,3.3268144,9.475093,-1.110048,1.4650879,18.701817,16.363192,20.457863,10.534453
1.7213666432653554,7.7479,2.7837403,9.909403,-1.6503774,0.64878356,19.819519,16.471045,19.867985,11.730211
1.723365907673724,6.7645335,2.473476,9.942126,-1.9842118,-0.03394692,20.866219,16.781904,19.247654,11.193077
1.7253651720820926,6.1570997,2.4494026,9.601028,-2.090139,-0.40635908,21.77551,17.312286,18.806417,8.96241
1.7273644364904612,6.0461054,2.677984,8.948475,-1.9998817,-0.35342005,22.38322,17.945335,18.609411,5.454681
1.7293637008406222,6.404671,3.0522296,8.070923,-1.7872566,0.14266706,22.492111,18.473034,18.575035,1.3224078
1.7313629652489908,7.0564613,3.427948,7.0590982,-1.5396167,1.0010483,21.950222,18.661058,18.516079,-2.7092931
1.7333622296573594,7.727085,3.6709754,6.0142274,-1.330238,2.028573,20.726732,18.328491,18.212404,-6.0139866
1.735361494065728,8.098644,3.6893456,5.021156,-1.2008435,2.9652052,18.923141,17.38769,17.470524,-8.199023
1.737360758415889,7.9332438,3.4680262,4.1562376,-1.1395292,3.5838103,16.76239,15.877166,16.197506,-9.150584
1.7393600228242576,7.0934415,3.048558,3.467124,-1.1069677,3.6846495,14.505679,13.926858,14.398217,-8.995235
1.7413592872326262,5.617828,2.5195189,2.974222,-1.0448258,3.1870978,12.380169,11.7179,12.174594,-8.0102415
1.7433585516409948,3.7031982,1.9830989,2.6625373,-0.89572227,2.1781352,10.508429,9.426427,9.677232,-6.5277514
1.7453578159911558,1.6186258,1.5109959,2.4875424,-0.6360264,0.8588941,8.876343,7.1648726,7.032844,-4.8236003
1.7473570803995244,-0.3401385,1.1397754,2.3842835,-0.27332404,-0.46494216,7.3670664,4.97626,4.326522,-3.1034584
1.749356344807893,-1.9464948,0.8560284,2.2759721,0.14812773,-1.4823451,5.8074946,2.833994,1.5748366,-1.4957147
1.7513556092162617,-3.0841105,0.6150148,2.0988727,0.565248,-1.948486,4.048964,0.6807695,-1.2472315,-0.0779713
1.7533548735664226,-3.77284,0.35612103,1.8040899,0.9103588,-1.7781781,2.018273,-1.5320296,-4.168852,1.0961143
1.7553541379747912,-4.105203,0.036836132,1.3815114,1.1387435,-1.0315201,-0.25419047,-3.8036182,-7.1614246,1.9880779
1.7573534023831598,-4.226592,-0.36444435,0.85156536,1.2327179,0.07714902,-2.6590707,-6.078065,-10.126523,2.5901515
1.7593526667915285,-4.293761,-0.8520608,0.2292743,1.1956565,1.2408029,-5.070835,-8.267302,-12.910422,2.919917
1.7613519311416894,-4.4297867,-1.4150821,-0.4778505,1.0468352,2.1525087,-7.3902802,-10.273709,-15.326992,3.0261822
1.763351195550058,-4.6913295,-2.0379453,-1.2820637,0.81097883,2.6021554,-9.590221,-12.029781,-17.216745,3.0023255
1.7653504599584267,-5.100364,-2.7159483,-2.214575,0.4980016,2.4949572,-11.71336,-13.520821,-18.498747,2.9297793
1.7673497243667953,-5.671543,-3.459845,-3.3288276,0.094206825,1.8571588,-13.839921,-14.789485,-19.202374,2.8081636
1.7693489887169562,-6.3661146,-4.2725897,-4.6441603,-0.41729578,0.8304324,-16.021696,-15.897494,-19.427103,2.5809999
1.7713482531253248,-7.1427007,-5.142423,-6.128102,-1.0500709,-0.39830548,-18.228956,-16.89383,-19.320086,2.1194963
1.7733475175336935,-7.902785,-6.017892,-7.672321,-1.7853608,-1.634381,-20.31896,-17.763754,-18.985165,1.2793477
1.775346781942062,-8.50161,-6.8052673,-9.099108,-2.5593998,-2.6948042,-22.04606,-18.414997,-18.449152,-0.030450746
1.777346046292223,-8.713098,-7.3638783,-10.17063,-3.25008,-3.4040697,-23.110394,-18.674831,-17.61868,-1.7352945
1.7793453107005917,-8.302299,-7.5447397,-10.657854,-3.7071624,-3.6136837,-23.244648,-18.341635,-16.33116,-3.5934026
1.7813445751089603,-7.04445,-7.215406,-10.386211,-3.7779894,-3.1876142,-22.283949,-17.235006,-14.399118,-5.2137475
1.7833438395173289,-4.827415,-6.30928,-9.297815,-3.3628871,-2.0581222,-20.221466,-15.263264,-11.709184,-6.170401
1.7853431038674898,-1.7134527,-4.8493905,-7.4735723,-2.4505737,-0.26282167,-17.22147,-12.4629,-8.284005,-6.118106
1.7873423682758585,2.006327,-2.961291,-5.1208396,-1.1436247,1.9833335,-13.579584,-9.007498,-4.324983,-4.9150896
1.789341632684227,5.847454,-0.8484176,-2.547271,0.35899067,4.317041,-9.658203,-5.1737537,-0.17641729,-2.7132623
1.7913408970925957,9.231466,1.2476485,-0.087781526,1.8019109,6.2558093,-5.808454,-1.2823526,3.7537606,0.058360774
1.7933401614427567,11.589963,3.1016834,1.9587251,2.937211,7.3110485,-2.300028,2.3711905,7.086395,2.7891827
1.7953394258511253,12.566566,4.569446,3.4057598,3.60387,7.159701,0.727605,5.5887747,9.593468,4.8657756
1.7973386902594939,12.090629,5.6085567,4.2090597,3.7596931,5.719381,3.2629173,8.292766,11.2435055,5.832738
1.7993379546678625,10.437026,6.2916718,4.470343,3.5042973,3.2445946,5.4023075,10.529084,12.215441,5.5349674
1.8013372190762311,8.16547,6.7779875,4.419132,3.0476935,0.27380845,7.3047547,12.4307165,12.833001,4.1812797
1.803336483426392,5.9740534,7.255582,4.338445,2.6421897,-2.500463,9.129307,14.154209,13.463983,2.2591236
1.8053357478347607,4.5065007,7.8849306,4.5015435,2.511367,-4.4189343,10.997599,15.825077,14.410402,0.42488056
1.8073350122431293,4.181255,8.742723,5.095917,2.7785044,-5.0313354,12.953376,17.488813,15.815607,-0.71240646
1.809334276651498,5.099581,9.802108,6.1749945,3.4379985,-4.1981406,14.961562,19.101068,17.636587,-0.7533034
1.8113335410016589,7.039835,10.937202,7.633267,4.3595076,-2.101629,16.91741,20.544113,19.6727,0.36160856
1.8133328054100275,9.528387,11.957567,9.241412,5.323844,0.77992994,18.681957,21.66761,21.629887,2.355567
1.8153320698183961,12.028157,12.673996,10.713827,6.102101,3.8753242,20.12347,22.346237,23.229145,4.70908
1.8173313342267647,14.056193,12.943181,11.78732,6.5084586,6.621438,21.151867,22.518051,24.275412,6.826078
1.8193305985769257,15.322353,12.711709,12.302813,6.4523993,8.606501,21.744507,22.207493,24.704414,8.205517
1.8213298629852943,15.757658,12.027037,12.254606,5.948607,9.592975,21.956814,21.525005,24.587524,8.581979
1.823329127393663,15.478412,11.007713,11.773568,5.095317,9.54267,21.8808,20.615889,24.068523,7.9709554
1.8253283918020315,14.731424,9.816446,11.083232,4.0438585,8.592238,21.612642,19.625301,23.318773,6.6317515
1.8273276561521925,13.746342,8.591707,10.399967,2.9337506,6.9434743,21.194302,18.633753,22.451323,4.945063
1.8293269205605611,12.705874,7.425885,9.864815,1.8685364,4.846053,20.595299,17.63971,21.505074,3.2857277
1.8313261849689297,11.670402,6.3355556,9.471492,0.8931709,2.5487585,19.691444,16.548004,20.420483,1.9083465
1.8333254493772984,10.602706,5.277471,9.075899,0.005416602,0.27808186,18.310211,15.205662,19.07217,0.9008511
1.8353247137274593,9.40438,4.181424,8.456065,-0.8176132,-1.7720772,16.293686,13.45775,17.322893,0.21731485
1.837323978135828,7.9848733,2.989409,7.397137,-1.587317,-3.4405758,13.566656,11.2045555,15.069895,-0.2588886
1.8393232425441965,6.2760577,1.6759357,5.7583156,-2.2915816,-4.611299,10.174865,8.432257,12.264497,-0.6764857
1.8413225069525652,4.300722,0.27864617,3.5441744,-2.8773487,-5.202825,6.3162975,5.2456603,8.960036,-1.1443362
1.8433217713027261,2.166136,-1.1261661,0.8891231,-3.2754505,-5.1697164,2.2831392,1.8333926,5.287014,-1.7422391
1.8453210357110947,0.04103619,-2.4425614,-1.9747915,-3.4230661,-4.52767,-1.5950359,-1.5653263,1.4466925,-2.517835
1.8473203001194634,-1.8866361,-3.594613,-4.799523,-3.296188,-3.341844,-5.040798,-4.722798,-2.331988,-3.5286057
1.849319564527832,-3.4740012,-4.5569296,-7.392504,-2.935968,-1.7817643,-7.8942394,-7.47092,-5.832567,-4.868557
1.851318828877993,-4.6330876,-5.3506556,-9.629518,-2.4372208,-0.08841558,-10.134009,-9.721198,-8.866335,-6.5868363
1.8533180932863615,-5.354058,-6.0315533,-11.46551,-1.9283687,1.4479274,-11.852629,-11.463619,-11.298712,-8.661575
1.8553173576947302,-5.7044344,-6.65607,-12.888656,-1.5348967,2.5112107,-13.192027,-12.73895,-13.053346,-10.932102
1.8573166221030988,-5.7852716,-7.247572,-13.889995,-1.3397682,2.8536558,-14.281531,-13.6056185,-14.103261,-13.093903
1.8593158864532597,-5.683117,-7.768526,-14.421675,-1.3490108,2.3806071,-15.176936,-14.106789,-14.466064,-14.709443
1.8613151508616284,-5.434593,-8.12348,-14.405505,-1.4906466,1.1858357,-15.847019,-14.255798,-14.183639,-15.30844
1.863314415269997,-5.015471,-8.1828,-13.754085,-1.6322494,-0.4247132,-16.189547,-14.043828,-13.326963,-14.511913
1.8653136796783656,-4.358104,-7.8322973,-12.433198,-1.6276577,-2.019067,-16.091232,-13.4654875,-11.989333,-12.173155
1.8673129440285265,-3.420541,-7.0215645,-10.497469,-1.3684515,-3.167581,-15.481441,-12.5480585,-10.306871,-8.438453
1.8693122084368952,-2.2061071,-5.7878532,-8.100944,-0.8131294,-3.5385864,-14.36796,-11.361922,-8.4436865,-3.7557251
1.8713114728452638,-0.8109343,-4.2653174,-5.491507,-0.009136989,-3.0218582,-12.8487425,-10.023232,-6.587629,1.1915803
1.8733107372536324,0.60041213,-2.6472268,-2.9577715,0.9318743,-1.7354419,-11.078546,-8.661978,-4.914294,5.6369543
1.8753100016037934,1.8428832,-1.1336555,-0.76178813,1.8736414,0.023594143,-9.220224,-7.382555,-3.5449896,8.920792
1.877309266012162,2.764704,0.12309734,0.9155611,2.7017424,1.8837972,-7.3960342,-6.229787,-2.5206747,10.633238
1.8793085304205306,3.3102167,1.062595,2.0161602,3.36464,3.533426,-5.648391,-5.164508,-1.7735564,10.7098875
1.8813077948288992,3.5430639,1.7229928,2.598247,3.8813996,4.8032103,-3.947102,-4.076744,-1.150229,9.425697
1.8833070591790602,3.5995765,2.2162175,2.8124187,4.3241076,5.6864424,-2.2091,-2.8232267,-0.46018687,7.305213
1.8853063235874288,3.6055887,2.6742,2.8505342,4.7658796,6.228822,-0.34408644,-1.2809336,0.45748314,4.9644914
1.8873055879957974,3.6322238,3.208063,2.9031534,5.252667,6.507721,1.7031904,0.60612184,1.6807863,2.9676583
1.889304852404166,3.6243942,3.85587,3.0942578,5.7563753,6.4942017,3.9102898,2.7887475,3.163296,1.6535544
1.891304116754327,3.459916,4.5904007,3.4729521,6.1953144,6.095995,6.1787605,5.12316,4.7598176,1.1211832
1.8933033811626956,2.999939,5.332524,4.0143023,6.457184,5.183609,8.352474,7.404704,6.267755,1.2073488
1.8953026455710642,2.1967888,5.994207,4.6420145,6.4533105,3.709639,10.249854,9.421551,7.5041256,1.622727
1.8973019099794328,1.1617876,6.5165567,5.27026,6.1657763,1.8085611,11.709431,11.009181,8.355455,2.0754604
1.8993011743295938,0.18409124,6.895236,5.835112,5.6704144,-0.16545534,12.624159,12.090346,8.818605,2.384798
1.9013004387379624,-0.36871937,7.1657324,6.308272,5.1098747,-1.7296824,12.967083,12.673909,8.970102,2.5060644
1.903299703146331,-0.1709714,7.38209,6.714832,4.6560717,-2.3910408,12.788388,12.832877,8.920608,2.5905793
1.9052989675546996,0.9184163,7.578901,7.0988073,4.4447513,-1.8258634,12.19965,12.665352,8.754658,2.843055
1.9072982319048606,2.746001,7.7386804,7.5037303,4.5188193,-0.040928103,11.344914,12.250375,8.480253,3.4583871
1.9092974963132292,4.8864493,7.794383,7.94463,4.8110113,2.5843165,10.37756,11.63295,8.03702,4.5303364
1.9112967607215978,6.750992,7.649297,8.385229,5.167566,5.4053245,9.426243,10.824303,7.3283834,6.0011387
1.9132960251299664,7.7628794,7.2200117,8.747322,5.400145,7.680369,8.580673,9.82642,6.282974,7.6869826
1.9152952894801274,7.5734563,6.484926,8.926877,5.3584347,8.819334,7.889861,8.670053,4.929279,9.326829
1.917294553888496,6.1477294,5.496127,8.822371,4.9735055,8.526052,7.3480573,7.4219413,3.4001195,10.6667595
1.9192938182968646,3.8214471,4.387213,8.3648205,4.291627,6.9366713,6.9007807,6.1887574,1.9297698,11.516887
1.9212930827052332,1.1643659,3.3389473,7.5566053,3.4505448,4.515854,6.482908,5.102677,0.7862311,11.793995
1.9232923471136019,-1.1781594,2.5176728,6.4379735,2.6223948,1.9094428,6.003384,4.266912,0.18666242,11.442787
1.9252916114637628,-2.6631758,2.0434082,5.123251,1.968599,-0.24411562,5.3970313,3.7382674,0.24228342,10.498874
1.9272908758721314,-2.9965403,1.9494575,3.752757,1.5830871,-1.4988252,4.6391673,3.503447,0.9156175,8.991415
1.9292901402805,-2.204965,2.1707108,2.469784,1.4616946,-1.7390243,3.7558026,3.4756875,2.021056,6.947513
1.9312894046888687,-0.56536174,2.571405,1.3929825,1.5221324,-1.1102701,2.8214028,3.5210984,3.2840781,4.4040465
1.9332886690390296,1.5042042,2.9864137,0.6048284,1.6415305,0.06893959,1.9439254,3.49177,4.401304,1.4786177
1.9352879334473982,3.5634086,3.2564323,0.12757158,1.6937582,1.4294238,1.2243906,3.254123,5.108743,-1.6355761
1.9372871978557669,5.244587,3.255999,-0.08613109,1.5868139,2.7021487,0.71028024,2.6997223,5.206256,-4.658842
1.9392864622641355,6.3150754,2.9126222,-0.14001562,1.2807878,3.755988,0.370598,1.7577379,4.5858426,-7.2548513
1.9412857266142964,6.666152,2.202879,-0.19326432,0.7803333,4.583407,0.08810609,0.3924306,3.2205162,-9.146741
1.943284991022665,6.279473,1.1388779,-0.4231144,0.11298277,5.2226033,-0.32066795,-1.402015,1.1499239,-10.169926
1.9452842554310337,5.187652,-0.24344012,-0.99128217,-0.69544494,5.6507306,-1.0489036,-3.5968118,-1.526469,-10.349166
1.9472835198394023,3.4238584,-1.8983908,-1.9970243,-1.638727,5.7418184,-2.238204,-6.1268897,-4.6736765,-9.888921
1.9492827841895632,1.0301385,-3.7678344,-3.441153,-2.7263796,5.2760916,-3.9206579,-8.880148,-8.112919,-9.1065445
1.9512820485979319,-1.9107797,-5.771949,-5.196142,-3.9631028,4.041196,-5.991414,-11.694963,-11.631054,-8.304161
1.9532813130063005,-5.281421,-7.8112636,-7.018511,-5.3336463,1.9087881,-8.212489,-14.371657,-14.995352,-7.658819
1.955280577414669,-8.865471,-9.758146,-8.595411,-6.7760935,-1.0351912,-10.270185,-16.691916,-17.958294,-7.15036
1.95727984176483,-12.38303,-11.468828,-9.60442,-8.181531,-4.479149,-11.84115,-18.450424,-20.298105,-6.5805492
1.9592791061731987,-15.475092,-12.794076,-9.798376,-9.405739,-7.9248996,-12.668661,-19.480204,-21.819702,-5.6606255
1.9612783705815673,-17.75232,-13.5992985,-9.063855,-10.295464,-10.800055,-12.615914,-19.674824,-22.37319,-4.1618834
1.963277634989936,-18.86778,-13.796738,-7.4737773,-10.733955,-12.618303,-11.699087,-19.008036,-21.87562,-2.0743902
1.9652768993400969,-18.589327,-13.354017,-5.2552133,-10.663429,-13.113915,-10.058039,-17.525417,-20.31823,0.3746073
1.9672761637484655,-16.854565,-12.312354,-2.7622106,-10.1094885,-12.292962,-7.929194,-15.342326,-17.76678,2.703924
1.969275428156834,-13.817494,-10.778996,-0.3798093,-9.168332,-10.403127,-5.5830264,-12.627361,-14.378739,4.3640594
1.9712746925652027,-9.844962,-8.912911,1.5536379,-7.9891114,-7.8650765,-3.2672179,-9.5818815,-10.393643,4.9131904
1.9732739569153637,-5.447219,-6.8958797,2.809729,-6.732243,-5.116031,-1.1736659,-6.4194117,-6.112124,4.170337
1.9752732213237323,-1.2155919,-4.9144278,3.3036132,-5.54786,-2.5359392,0.57817507,-3.3496118,-1.8771472,2.290845
1.977272485732101,2.3140147,-3.124731,3.0951993,-4.541544,-0.36276385,1.937913,-0.55426055,1.9788167,-0.23837362
1.9792717501404695,4.738785,-1.6477232,2.3372514,-3.7829356,1.2547015,2.9043431,1.8253136,5.1747417,-2.8074136
1.9812710144906305,5.863884,-0.555877,1.2399942,-3.3044963,2.2434335,3.509701,3.7026768,7.5237455,-4.8340683
1.983270278898999,5.740289,0.12748432,0.012464595,-3.110392,2.5683749,3.79932,5.052041,8.966021,-5.9486403
1.9852695433073677,4.5810733,0.41333327,-1.1624808,-3.195635,2.1722224,3.8292274,5.90204,9.549959,-6.0737877
1.9872688077157363,2.736247,0.34962586,-2.1484146,-3.534914,1.0597843,3.6622198,6.3268976,9.422136,-5.400818
1.9892680720658973,0.6120345,0.02026271,-2.8372796,-4.076768,-0.69293934,3.3937757,6.4451666,8.804665,-4.280023
1.991267336474266,-1.4394416,-0.47972527,-3.1853278,-4.7453313,-2.8795261,3.103097,6.3737183,7.918654,-3.0836258
1.9932666008826345,-3.1060731,-1.0314727,-3.1762853,-5.421643,-5.10957,2.875023,6.2287273,6.9828506,-2.0883305
1.9952658652910031,-4.1825233,-1.5155029,-2.8272524,-5.9661975,-6.917044,2.7761831,6.1000504,6.1611924,-1.414485
1.997265129641164,-4.558494,-1.8318775,-2.2087758,-6.2424817,-7.837319,2.815534,6.02776,5.5482254,-1.04665
1.9992643940495327,-4.2220874,-1.9139881,-1.4173702,-6.147162,-7.557077,2.9534633,6.004143,5.171427,-0.886522
2.0012636584579013,-3.2689579,-1.7489563,-0.5772658,-5.6434383,-6.0256257,3.0968394,5.970208,4.9857187,-0.83934444
2.00326292286627,-1.873343,-1.3785836,0.18036902,-4.770311,-3.4836266,3.113541,5.8294916,4.89751,-0.84662914
2.005262187216431,-0.29130387,-0.8942601,0.73560804,-3.639471,-0.41686356,2.8647828,5.4696813,4.7816863,-0.89000094
2.0072614516247995,1.1850654,-0.41522658,1.0036552,-2.4095109,2.5471256,2.2376583,4.7915745,4.5080748,-0.95380515
2.009260716033168,2.2567728,-0.06624186,0.9343868,-1.2501204,4.8111115,1.1659302,3.7289977,3.9610004,-1.0080478
2.0112599804415368,2.6702569,0.0427089,0.5015369,-0.31389543,5.9450674,-0.36671072,2.2593453,3.0473256,-1.0070748
2.0132592447916977,2.2843778,-0.14646977,-0.26971507,0.3057724,5.7816734,-2.2985423,0.43019336,1.7350227,-0.86504763
2.0152585092000663,1.0840782,-0.64686984,-1.3474789,0.56763715,4.4182496,-4.519875,-1.6619564,0.033924416,-0.570321
2.017257773608435,-0.8135394,-1.4185905,-2.660604,0.4867904,2.1495793,-6.8708425,-3.875034,-1.9934757,-0.15178609
2.0192570380168036,-3.1604078,-2.3721917,-4.0993853,0.1237202,-0.60250586,-9.14729,-6.033516,-4.2274246,0.27904433
2.0212563023669645,-5.6396494,-3.3906405,-5.520556,-0.43853983,-3.4100897,-11.123043,-7.9521933,-6.508355,0.5520394
2.023255566775333,-7.9117265,-4.3432984,-6.755082,-1.1098323,-5.9292088,-12.566177,-9.450186,-8.635017,0.50054806
2.0252548311837018,-9.647286,-5.0967145,-7.608674,-1.7935259,-7.911826,-13.26279,-10.366947,-10.381821,0.06067456
2.0272540955920704,-10.602375,-5.5485196,-7.927141,-2.4088619,-9.233669,-13.063802,-10.591935,-11.529534,-0.74410063
2.0292533599422313,-10.656431,-5.6419544,-7.6302476,-2.8981159,-9.888648,-11.923628,-10.086133,-11.911843,-1.7885721
2.0312526243506,-9.816106,-5.375805,-6.73157,-3.2261891,-9.937774,-9.920318,-8.8979,-11.447965,-2.865992
2.0332518887589686,-8.208227,-4.8053083,-5.34506,-3.3844736,-9.48565,-7.2608194,-7.1682277,-10.169844,-3.7584736
2.035251153167337,-6.0387154,-4.0281873,-3.6603749,-3.3824975,-8.637097,-4.25446,-5.1161914,-8.222363,-4.281431
2.037250417575706,-3.576239,-3.1709774,-1.8887621,-3.2463295,-7.491354,-1.2614985,-3.0173743,-5.864183,-4.3009176
2.0392496819258668,-1.0712845,-2.3525112,-0.2026928,-2.9985182,-6.1152606,1.3830456,-1.1468287,-3.397586,-3.728943
2.0412489463342354,1.2846234,-1.6640413,1.2962627,-2.6514113,-4.5240574,3.4221883,0.26295713,-1.115167,-2.523428
2.043248210742604,3.3391142,-1.167409,2.5867257,-2.2187657,-2.752437,4.7156043,1.058195,0.73985237,-0.6811225
2.0452474751509726,5.006345,-0.89231116,3.6863759,-1.719181,-0.8485168,5.2465057,1.1847054,2.0236375,1.7234138
2.0472467395011336,6.225545,-0.85358655,4.6015267,-1.1948289,1.0804152,5.091719,0.68124866,2.6901596,4.5016694
2.049246003909502,6.9310126,-1.0642748,5.2815156,-0.72047025,2.8740377,4.386353,-0.34463307,2.7686694,7.3146696
2.051245268317871,7.051926,-1.5377849,5.605525,-0.39715892,4.3161364,3.2866309,-1.7413722,2.3439333,9.719596
2.0532445327262394,6.4960217,-2.2904952,5.394281,-0.34525433,5.1543956,1.9316542,-3.3530076,1.5117865,11.178659
2.0552437970764004,5.2279367,-3.313268,4.480792,-0.6545778,5.237809,0.437376,-5.0314207,0.37683493,11.203832
2.057243061484769,3.262854,-4.561327,2.799313,-1.3651187,4.4835606,-1.0887997,-6.6463795,-0.9616272,9.519373
2.0592423258931376,0.7438752,-5.931857,0.45046237,-2.4291346,2.9752142,-2.5371218,-8.079051,-2.3856866,6.175542
2.061241590301506,-2.0578337,-7.264656,-2.2650301,-3.7032096,0.9530013,-3.7745144,-9.213499,-3.7514067,1.634617
2.063240854651667,-4.77626,-8.36194,-4.894123,-4.971785,-1.2477641,-4.6398277,-9.930733,-4.8846593,-3.305575
2.065240119060036,-7.0029335,-9.024908,-6.9224634,-5.987044,-3.2441578,-4.981524,-10.123437,-5.60241,-7.63367
2.0672393834684044,-8.376956,-9.090768,-7.893509,-6.5227604,-4.696951,-4.663474,-9.701856,-5.7423015,-10.377182
2.069238647876773,-8.663737,-8.470956,-7.5463214,-6.427305,-5.3818064,-3.6184554,-8.619599,-5.2086263,-10.848305
2.071237912226934,-7.818651,-7.1745625,-5.881478,-5.6640067,-5.2568636,-1.8718909,-6.891169,-4.0015497,-8.841479
2.0732371766353026,-6.013745,-5.314242,-3.1821241,-4.3217554,-4.439691,0.44023848,-4.607183,-2.2389255,-4.7295146
2.075236441043671,-3.5994375,-3.0828333,0.06378941,-2.5952852,-3.208562,3.0914764,-1.9256258,-0.13865094,0.61708426
2.07723570545204,-1.0366774,-0.72359633,3.2758164,-0.74326193,-1.9235474,5.794093,0.9412965,2.0169404,6.03954
2.079234969802201,1.207862,1.5169455,5.9208455,0.9688479,-0.9542706,8.251044,3.7629044,3.9463966,10.368506
2.0812342342105694,2.7455912,3.4178388,7.6188827,2.3159049,-0.598203,10.194662,6.309426,5.4030175,12.676283
2.083233498618938,3.369305,4.822322,8.194713,3.162276,-0.9796431,11.422316,8.388748,6.2362633,12.496555
2.0852327630273066,3.0658224,5.6511054,7.695731,3.4749768,-2.0647092,11.821581,9.866474,6.4001875,9.930941
2.0872320273774676,2.0280235,5.9072943,6.329192,3.324667,-3.6097307,11.37031,10.676503,5.951683,5.558072
2.089231291785836,0.5784002,5.6613283,4.391855,2.8513553,-5.272425,10.129069,10.821277,5.023934,0.28012908
2.091230556194205,-0.9170576,5.0318327,2.198087,2.2279286,-6.6744723,8.224512,10.362873,3.78936,-4.8967466
2.0932298206025735,-2.1117413,4.1606464,0.008659651,1.6174283,-7.488869,5.822446,9.405508,2.4311023,-9.110759
2.0952290849527344,-2.7703488,3.194461,-1.9635212,1.1435335,-7.5326715,3.1294441,8.087402,1.1195196,-11.752257
2.097228349361103,-2.8165746,2.2521286,-3.5913281,0.86155665,-6.807884,0.35061008,6.545251,-0.026445607,-12.5835085
2.0992276137694716,-2.2937772,1.4230286,-4.813148,0.7689507,-5.456325,-2.3228378,4.906523,-0.92356527,-11.720875
2.1012268781778403,-1.3760219,0.7476712,-5.6335816,0.80870223,-3.71506,-4.743865,3.2610655,-1.559834,-9.582064
2.103226142528001,-0.29632628,0.22600986,-6.1109138,0.89627653,-1.8570101,-6.8264112,1.6576873,-1.982307,-6.74895
2.10522540693637,0.7124289,-0.17570657,-6.340172,0.9485774,-0.104822576,-8.553368,0.103286825,-2.2858522,-3.8452108
2.1072246713447385,1.4544141,-0.512761,-6.4382024,0.9004917,1.3897462,-9.968691,-1.4283484,-2.608364,-1.4296609
2.109223935753107,1.7828889,-0.85396844,-6.5227633,0.7111485,2.524492,-11.162384,-2.9831207,-3.1048467,0.10533027
2.111223200103268,1.6318399,-1.2594719,-6.6859617,0.3726249,3.247382,-12.231233,-4.598439,-3.9034195,0.57478446
2.1132224645116366,0.9997048,-1.7698853,-6.9713206,-0.09799191,3.5189958,-13.239873,-6.2829523,-5.078706,0.012888251
2.1152217289200053,-0.061028346,-2.405115,-7.384802,-0.675848,3.2725475,-14.208602,-8.0063925,-6.620971,-1.3854281
2.117220993328374,-1.4839009,-3.1623495,-7.8993263,-1.3342942,2.4489572,-15.107532,-9.70309,-8.443921,-3.3338673
2.119220257678535,-3.1596067,-4.009209,-8.470847,-2.043467,1.0384921,-15.852704,-11.271745,-10.379435,-5.5320735
2.1212195220869035,-4.970013,-4.8945184,-9.064809,-2.7738342,-0.8972648,-16.345253,-12.599361,-12.2202215,-7.7332325
2.123218786495272,-6.7718787,-5.7439466,-9.627638,-3.4816172,-3.180583,-16.472948,-13.572739,-13.752178,-9.746789
2.1252180509036407,-8.411082,-6.469472,-10.090237,-4.106288,-5.5394063,-16.13492,-14.096947,-14.796803,-11.418669
2.1272173152538016,-9.702616,-6.9745884,-10.360287,-4.5689197,-7.6315174,-15.260644,-14.106542,-15.226012,-12.648089
2.1292165796621703,-10.451159,-7.161623,-10.294289,-4.7734766,-9.09881,-13.802873,-13.56804,-14.97645,-13.2827835
2.131215844070539,-10.47529,-6.951645,-9.738304,-4.631584,-9.653057,-11.755598,-12.4878025,-14.0496855,-13.177198
2.1332151084789075,-9.625234,-6.297851,-8.567031,-4.0820045,-9.124215,-9.165317,-10.910512,-12.491626,-12.215421
2.1352143728290685,-7.837304,-5.2093153,-6.7488046,-3.1153526,-7.476381,-6.1516027,-8.930401,-10.401955,-10.378825
2.137213637237437,-5.1670375,-3.7585,-4.3891425,-1.7946438,-4.841399,-2.8995068,-6.6800795,-7.914914,-7.83228
2.1392129016458057,-1.8167884,-2.0787115,-1.7218219,-0.24947712,-1.4782519,0.34516522,-4.325971,-5.205957,-4.889946
2.1412121660541743,1.8611771,-0.3514076,0.9045183,1.3331774,2.23965,3.3120096,-2.050059,-2.4840593,-2.009231
2.1432114304043353,5.400384,1.2281716,3.1267843,2.744519,5.8566504,5.759658,-0.01964722,0.029093763,0.3374833
2.145210694812704,8.282541,2.4880836,4.657167,3.7961366,8.890871,7.5231633,1.6374843,2.1183271,1.7933669
2.1472099592210725,10.034707,3.317736,5.372771,4.361497,10.886378,8.556331,2.8571336,3.6151173,2.2538047
